time_s,BIS_EEG1,BIS_EEG2,BIS,SQI,EMG,SEF,SR,TOTPOW
332,15.9,19.45,52.8,80.1,30.93,15.49,0,63.63
332.0078125,19.85,22.25,52.8,80.1,30.93,15.49,0,63.63
332.015625,24.55,25.2,52.8,80.1,30.93,15.49,0,63.63
332.0234375,28.15,27.85,52.8,80.1,30.93,15.49,0,63.63
332.03125,26.35,27.95,52.8,80.1,30.93,15.49,0,63.63
332.0390625,27.7,29,52.8,80.1,30.93,15.49,0,63.63
332.046875,29.35,29.55,52.8,80.1,30.93,15.49,0,63.63
332.0546875,33.35,34.55,52.8,80.1,30.93,15.49,0,63.63
332.0625,30.4,36.85,52.8,80.1,30.93,15.49,0,63.63
332.0703125,29.1,39,52.8,80.1,30.93,15.49,0,63.63
332.078125,26.35,35.5,52.8,80.1,30.93,15.49,0,63.63
332.0859375,26.95,34.3,52.8,80.1,30.93,15.49,0,63.63
332.09375,22.45,31.4,52.8,80.1,30.93,15.49,0,63.63
332.1015625,20,32.3,52.8,80.1,30.93,15.49,0,63.63
332.109375,16.55,31.45,52.8,80.1,30.93,15.49,0,63.63
332.1171875,16.95,32.45,52.8,80.1,30.93,15.49,0,63.63
332.125,21.9,34.3,52.8,80.1,30.93,15.49,0,63.63
332.1328125,29.95,37,52.8,80.1,30.93,15.49,0,63.63
332.140625,35.8,38.3,52.8,80.1,30.93,15.49,0,63.63
332.1484375,36.6,38.25,52.8,80.1,30.93,15.49,0,63.63
332.15625,35.95,38.05,52.4,80.1,31.06,15.36,0,63.63
332.1640625,30.5,34.5,52.4,80.1,31.06,15.36,0,63.63
332.171875,32.8,36.65,52.4,80.1,31.06,15.36,0,63.63
332.1796875,33.95,38.65,52.4,80.1,31.06,15.36,0,63.63
332.1875,35.2,40.8,52.4,80.1,31.06,15.36,0,63.63
332.1953125,35,40.45,52.4,80.1,31.06,15.36,0,63.63
332.203125,41.2,45.6,52.4,80.1,31.06,15.36,0,63.63
332.2109375,43,47.35,52.4,80.1,31.06,15.36,0,63.63
332.21875,47.9,50.55,52.4,80.1,31.06,15.36,0,63.63
332.2265625,49.95,50.35,52.4,80.1,31.06,15.36,0,63.63
332.234375,49.65,50.7,52.4,80.1,31.06,15.36,0,63.63
332.2421875,45.8,47.3,52.4,80.1,31.06,15.36,0,63.63
332.25,44.9,45.65,52.4,80.1,31.06,15.36,0,63.63
332.2578125,49.95,46.8,52.4,80.1,31.06,15.36,0,63.63
332.265625,54.3,48.75,52.4,80.1,31.06,15.36,0,63.63
332.2734375,56.25,50.55,52.4,80.1,31.06,15.36,0,63.63
332.28125,55.5,50.8,52.4,80.1,31.06,15.36,0,63.63
332.2890625,55.9,50.6,52.4,80.1,31.06,15.36,0,63.63
332.296875,53.1,47.45,52.4,80.1,31.06,15.36,0,63.63
332.3046875,58.1,49.2,52.4,80.1,31.06,15.36,0,63.63
332.3125,60.8,49.5,52.4,80.1,31.06,15.36,0,63.63
332.3203125,64.5,51.7,52.4,80.1,31.06,15.36,0,63.63
332.328125,63.6,51.25,52.4,80.1,31.06,15.36,0,63.63
332.3359375,64.6,53.1,52.4,80.1,31.06,15.36,0,63.63
332.34375,63,52.55,52.4,80.1,31.06,15.36,0,63.63
332.3515625,64.65,53.85,52.4,80.1,31.06,15.36,0,63.63
332.359375,65.7,53.7,52.4,80.1,31.06,15.36,0,63.63
332.3671875,71.05,57.6,52.4,80.1,31.06,15.36,0,63.63
332.375,74.8,60.45,52.4,80.1,31.06,15.36,0,63.63
332.3828125,75.25,61.55,52.4,80.1,31.06,15.36,0,63.63
332.390625,74.55,61.55,52.4,80.1,31.06,15.36,0,63.63
332.3984375,69.05,58.55,52.4,80.1,31.06,15.36,0,63.63
332.40625,66,57.3,52.4,80.1,31.06,15.36,0,63.63
332.4140625,64.3,55.15,52.4,80.1,31.06,15.36,0,63.63
332.421875,65.7,54.05,52.4,80.1,31.06,15.36,0,63.63
332.4296875,64.55,52,52.4,80.1,31.06,15.36,0,63.63
332.4375,67.65,54.2,52.4,80.1,31.06,15.36,0,63.63
332.4453125,66.6,52.55,52.4,80.1,31.06,15.36,0,63.63
332.453125,71.05,54,52.4,80.1,31.06,15.36,0,63.63
332.4609375,72.55,52.55,52.4,80.1,31.06,15.36,0,63.63
332.46875,74.05,52.85,52.4,80.1,31.06,15.36,0,63.63
332.4765625,71.35,51.35,52.4,80.1,31.06,15.36,0,63.63
332.484375,68.9,51.1,52.4,80.1,31.06,15.36,0,63.63
332.4921875,64.6,47.8,52.4,80.1,31.06,15.36,0,63.63
332.5,63.55,46.95,52.4,80.1,31.06,15.36,0,63.63
332.5078125,65.95,47.75,52.4,80.1,31.06,15.36,0,63.63
332.515625,68.05,49.05,52.4,80.1,31.06,15.36,0,63.63
332.5234375,63.75,46.6,52.4,80.1,31.06,15.36,0,63.63
332.53125,52.35,39.35,52.4,80.1,31.06,15.36,0,63.63
332.5390625,48.75,36,52.4,80.1,31.06,15.36,0,63.63
332.546875,47.85,35.1,52.4,80.1,31.06,15.36,0,63.63
332.5546875,48.9,36.95,52.4,80.1,31.06,15.36,0,63.63
332.5625,46.2,35.45,52.4,80.1,31.06,15.36,0,63.63
332.5703125,45.7,35.75,52.4,80.1,31.06,15.36,0,63.63
332.578125,41.1,33.2,52.4,80.1,31.06,15.36,0,63.63
332.5859375,38.9,33.95,52.4,80.1,31.06,15.36,0,63.63
332.59375,33.55,33.1,52.4,80.1,31.06,15.36,0,63.63
332.6015625,31.35,34.75,52.4,80.1,31.06,15.36,0,63.63
332.609375,29.8,33.85,52.4,80.1,31.06,15.36,0,63.63
332.6171875,30.1,33.3,52.4,80.1,31.06,15.36,0,63.63
332.625,30.2,32.6,52.4,80.1,31.06,15.36,0,63.63
332.6328125,28.65,32.5,52.4,80.1,31.06,15.36,0,63.63
332.640625,24.9,31.15,52.4,80.1,31.06,15.36,0,63.63
332.6484375,19.6,28.5,52.4,80.1,31.06,15.36,0,63.63
332.65625,18.4,28.25,52.4,80.1,31.06,15.36,0,63.63
332.6640625,18.35,29.2,52.4,80.1,31.06,15.36,0,63.63
332.671875,22.35,32.3,52.4,80.1,31.06,15.36,0,63.63
332.6796875,21.1,30.95,52.4,80.1,31.06,15.36,0,63.63
332.6875,22.75,31.8,52.4,80.1,31.06,15.36,0,63.63
332.6953125,22.1,29.9,52.4,80.1,31.06,15.36,0,63.63
332.703125,25.55,31.15,52.4,80.1,31.06,15.36,0,63.63
332.7109375,24.8,30,52.4,80.1,31.06,15.36,0,63.63
332.71875,25.55,32.05,52.4,80.1,31.06,15.36,0,63.63
332.7265625,25,31.95,52.4,80.1,31.06,15.36,0,63.63
332.734375,25.75,33.2,52.4,80.1,31.06,15.36,0,63.63
332.7421875,22.6,31.55,52.4,80.1,31.06,15.36,0,63.63
332.75,21.35,31.65,52.4,80.1,31.06,15.36,0,63.63
332.7578125,23.2,32.7,52.4,80.1,31.06,15.36,0,63.63
332.765625,24.7,34.1,52.4,80.1,31.06,15.36,0,63.63
332.7734375,25.3,34.8,52.4,80.1,31.06,15.36,0,63.63
332.78125,22.35,33.6,52.4,80.1,31.06,15.36,0,63.63
332.7890625,23.55,33.8,52.4,80.1,31.06,15.36,0,63.63
332.796875,24.05,32.45,52.4,80.1,31.06,15.36,0,63.63
332.8046875,27.65,34.2,52.4,80.1,31.06,15.36,0,63.63
332.8125,29.25,35.3,52.4,80.1,31.06,15.36,0,63.63
332.8203125,35.2,39.25,52.4,80.1,31.06,15.36,0,63.63
332.828125,35.25,39.2,52.4,80.1,31.06,15.36,0,63.63
332.8359375,36,40.6,52.4,80.1,31.06,15.36,0,63.63
332.84375,32.8,39.25,52.4,80.1,31.06,15.36,0,63.63
332.8515625,32.55,41,52.4,80.1,31.06,15.36,0,63.63
332.859375,32.6,42.85,52.4,80.1,31.06,15.36,0,63.63
332.8671875,36.45,47.25,52.4,80.1,31.06,15.36,0,63.63
332.875,41.5,50.9,52.4,80.1,31.06,15.36,0,63.63
332.8828125,43.55,52.05,52.4,80.1,31.06,15.36,0,63.63
332.890625,40.2,47.9,52.4,80.1,31.06,15.36,0,63.63
332.8984375,36.85,42.6,52.4,80.1,31.06,15.36,0,63.63
332.90625,38.15,41.25,52.4,80.1,31.06,15.36,0,63.63
332.9140625,36.65,40.15,52.4,80.1,31.06,15.36,0,63.63
332.921875,39.4,43.1,52.4,80.1,31.06,15.36,0,63.63
332.9296875,39.65,44.75,52.4,80.1,31.06,15.36,0,63.63
332.9375,40.1,47.3,52.4,80.1,31.06,15.36,0,63.63
332.9453125,37.45,45.95,52.4,80.1,31.06,15.36,0,63.63
332.953125,38.75,47.35,52.4,80.1,31.06,15.36,0,63.63
332.9609375,37.95,45.55,52.4,80.1,31.06,15.36,0,63.63
332.96875,40.4,46.5,52.4,80.1,31.06,15.36,0,63.63
332.9765625,39,45.15,52.4,80.1,31.06,15.36,0,63.63
332.984375,40.1,45.75,52.4,80.1,31.06,15.36,0,63.63
332.9921875,42.55,45.35,52.4,80.1,31.06,15.36,0,63.63
333,47,46.95,52.4,80.1,31.06,15.36,0,63.63
333.0078125,52.8,49.25,52.4,80.1,31.06,15.36,0,63.63
333.015625,57.1,51.25,52.4,80.1,31.06,15.36,0,63.63
333.0234375,59.45,52.25,52.4,80.1,31.06,15.36,0,63.63
333.03125,58.6,52.45,52.4,80.1,31.06,15.36,0,63.63
333.0390625,59.4,53.9,52.4,80.1,31.06,15.36,0,63.63
333.046875,56.55,52,52.4,80.1,31.06,15.36,0,63.63
333.0546875,55.55,51.5,52.4,80.1,31.06,15.36,0,63.63
333.0625,49.9,48.25,52.4,80.1,31.06,15.36,0,63.63
333.0703125,44.25,45.25,52.4,80.1,31.06,15.36,0,63.63
333.078125,34.95,39.45,52.4,80.1,31.06,15.36,0,63.63
333.0859375,32.45,38.6,52.4,80.1,31.06,15.36,0,63.63
333.09375,33.2,38.2,52.4,80.1,31.06,15.36,0,63.63
333.1015625,36.05,40.55,52.4,80.1,31.06,15.36,0,63.63
333.109375,32,38.95,52.4,80.1,31.06,15.36,0,63.63
333.1171875,28.45,37.05,52.4,80.1,31.06,15.36,0,63.63
333.125,26.45,35.1,52.4,80.1,31.06,15.36,0,63.63
333.1328125,23.85,34.45,52.4,80.1,31.06,15.36,0,63.63
333.140625,23.15,33.6,52.4,80.1,31.06,15.36,0,63.63
333.1484375,25.65,33.95,52.4,80.1,31.06,15.36,0,63.63
333.15625,33.5,38,52.2,80.1,31.5,15.28,0,63.83
333.1640625,38.75,40.9,52.2,80.1,31.5,15.28,0,63.83
333.171875,43.95,43.55,52.2,80.1,31.5,15.28,0,63.83
333.1796875,42.9,42.5,52.2,80.1,31.5,15.28,0,63.83
333.1875,42.95,43.8,52.2,80.1,31.5,15.28,0,63.83
333.1953125,38.85,43.35,52.2,80.1,31.5,15.28,0,63.83
333.203125,40.35,47.65,52.2,80.1,31.5,15.28,0,63.83
333.2109375,40.9,49.9,52.2,80.1,31.5,15.28,0,63.83
333.21875,44.1,52.7,52.2,80.1,31.5,15.28,0,63.83
333.2265625,44.05,51.35,52.2,80.1,31.5,15.28,0,63.83
333.234375,46.75,53,52.2,80.1,31.5,15.28,0,63.83
333.2421875,50.65,54.65,52.2,80.1,31.5,15.28,0,63.83
333.25,59.6,59.65,52.2,80.1,31.5,15.28,0,63.83
333.2578125,68.15,64.9,52.2,80.1,31.5,15.28,0,63.83
333.265625,70.8,66.4,52.2,80.1,31.5,15.28,0,63.83
333.2734375,68.55,64.25,52.2,80.1,31.5,15.28,0,63.83
333.28125,62.35,61.35,52.2,80.1,31.5,15.28,0,63.83
333.2890625,56.8,58.95,52.2,80.1,31.5,15.28,0,63.83
333.296875,48.7,54.05,52.2,80.1,31.5,15.28,0,63.83
333.3046875,45.5,52.75,52.2,80.1,31.5,15.28,0,63.83
333.3125,42.8,50.7,52.2,80.1,31.5,15.28,0,63.83
333.3203125,45.1,52.05,52.2,80.1,31.5,15.28,0,63.83
333.328125,46.75,52,52.2,80.1,31.5,15.28,0,63.83
333.3359375,52.9,54.7,52.2,80.1,31.5,15.28,0,63.83
333.34375,54.35,53.5,52.2,80.1,31.5,15.28,0,63.83
333.3515625,57.85,54.3,52.2,80.1,31.5,15.28,0,63.83
333.359375,62,53.55,52.2,80.1,31.5,15.28,0,63.83
333.3671875,65.25,54.3,52.2,80.1,31.5,15.28,0,63.83
333.375,60.8,51.1,52.2,80.1,31.5,15.28,0,63.83
333.3828125,53.65,48,52.2,80.1,31.5,15.28,0,63.83
333.390625,48.15,45.8,52.2,80.1,31.5,15.28,0,63.83
333.3984375,44.25,44.15,52.2,80.1,31.5,15.28,0,63.83
333.40625,44.4,43.7,52.2,80.1,31.5,15.28,0,63.83
333.4140625,45.85,44,52.2,80.1,31.5,15.28,0,63.83
333.421875,52.7,46.65,52.2,80.1,31.5,15.28,0,63.83
333.4296875,57.1,47.45,52.2,80.1,31.5,15.28,0,63.83
333.4375,65.65,52.15,52.2,80.1,31.5,15.28,0,63.83
333.4453125,69.2,53.3,52.2,80.1,31.5,15.28,0,63.83
333.453125,70.7,53.75,52.2,80.1,31.5,15.28,0,63.83
333.4609375,65.1,49.15,52.2,80.1,31.5,15.28,0,63.83
333.46875,62,47.2,52.2,80.1,31.5,15.28,0,63.83
333.4765625,57.8,44.95,52.2,80.1,31.5,15.28,0,63.83
333.484375,58.55,47,52.2,80.1,31.5,15.28,0,63.83
333.4921875,60.25,48.05,52.2,80.1,31.5,15.28,0,63.83
333.5,62.9,49,52.2,80.1,31.5,15.28,0,63.83
333.5078125,62.6,47.65,52.2,80.1,31.5,15.28,0,63.83
333.515625,62.4,47.8,52.2,80.1,31.5,15.28,0,63.83
333.5234375,65.45,50.45,52.2,80.1,31.5,15.28,0,63.83
333.53125,67.2,51.85,52.2,80.1,31.5,15.28,0,63.83
333.5390625,67.7,52.95,52.2,80.1,31.5,15.28,0,63.83
333.546875,61.4,51.55,52.2,80.1,31.5,15.28,0,63.83
333.5546875,53.95,50.2,52.2,80.1,31.5,15.28,0,63.83
333.5625,45.75,46.45,52.2,80.1,31.5,15.28,0,63.83
333.5703125,46.8,47.3,52.2,80.1,31.5,15.28,0,63.83
333.578125,47.3,46.75,52.2,80.1,31.5,15.28,0,63.83
333.5859375,51.35,48.9,52.2,80.1,31.5,15.28,0,63.83
333.59375,54.25,49.15,52.2,80.1,31.5,15.28,0,63.83
333.6015625,57.05,50.4,52.2,80.1,31.5,15.28,0,63.83
333.609375,56.7,48.8,52.2,80.1,31.5,15.28,0,63.83
333.6171875,59.3,49.8,52.2,80.1,31.5,15.28,0,63.83
333.625,59.25,49.3,52.2,80.1,31.5,15.28,0,63.83
333.6328125,56.4,48.85,52.2,80.1,31.5,15.28,0,63.83
333.640625,52.8,48.25,52.2,80.1,31.5,15.28,0,63.83
333.6484375,47.3,47,52.2,80.1,31.5,15.28,0,63.83
333.65625,45.55,46.85,52.2,80.1,31.5,15.28,0,63.83
333.6640625,44.8,45.75,52.2,80.1,31.5,15.28,0,63.83
333.671875,46.6,46.35,52.2,80.1,31.5,15.28,0,63.83
333.6796875,46,44.2,52.2,80.1,31.5,15.28,0,63.83
333.6875,49.85,43.05,52.2,80.1,31.5,15.28,0,63.83
333.6953125,49.1,38.45,52.2,80.1,31.5,15.28,0,63.83
333.703125,51,39.4,52.2,80.1,31.5,15.28,0,63.83
333.7109375,48.7,39.35,52.2,80.1,31.5,15.28,0,63.83
333.71875,45.35,40.35,52.2,80.1,31.5,15.28,0,63.83
333.7265625,39.35,39.1,52.2,80.1,31.5,15.28,0,63.83
333.734375,38,40.2,52.2,80.1,31.5,15.28,0,63.83
333.7421875,37.75,38.5,52.2,80.1,31.5,15.28,0,63.83
333.75,41.55,38.1,52.2,80.1,31.5,15.28,0,63.83
333.7578125,44.65,38.1,52.2,80.1,31.5,15.28,0,63.83
333.765625,42.5,37.4,52.2,80.1,31.5,15.28,0,63.83
333.7734375,40.35,35.75,52.2,80.1,31.5,15.28,0,63.83
333.78125,40.5,34.1,52.2,80.1,31.5,15.28,0,63.83
333.7890625,46.25,36.85,52.2,80.1,31.5,15.28,0,63.83
333.796875,51.2,40.15,52.2,80.1,31.5,15.28,0,63.83
333.8046875,59.05,45.1,52.2,80.1,31.5,15.28,0,63.83
333.8125,61.15,46.25,52.2,80.1,31.5,15.28,0,63.83
333.8203125,60.6,45.5,52.2,80.1,31.5,15.28,0,63.83
333.828125,50.8,37.5,52.2,80.1,31.5,15.28,0,63.83
333.8359375,40.65,30.6,52.2,80.1,31.5,15.28,0,63.83
333.84375,29.75,24.85,52.2,80.1,31.5,15.28,0,63.83
333.8515625,26.7,24.75,52.2,80.1,31.5,15.28,0,63.83
333.859375,25.8,23.85,52.2,80.1,31.5,15.28,0,63.83
333.8671875,27.95,25.05,52.2,80.1,31.5,15.28,0,63.83
333.875,30.05,26.25,52.2,80.1,31.5,15.28,0,63.83
333.8828125,32.65,27.95,52.2,80.1,31.5,15.28,0,63.83
333.890625,35.55,29.55,52.2,80.1,31.5,15.28,0,63.83
333.8984375,34.6,30.8,52.2,80.1,31.5,15.28,0,63.83
333.90625,29.55,29.9,52.2,80.1,31.5,15.28,0,63.83
333.9140625,22.9,27.25,52.2,80.1,31.5,15.28,0,63.83
333.921875,23.6,29.65,52.2,80.1,31.5,15.28,0,63.83
333.9296875,23.95,30.2,52.2,80.1,31.5,15.28,0,63.83
333.9375,25.4,30.4,52.2,80.1,31.5,15.28,0,63.83
333.9453125,21.35,25.85,52.2,80.1,31.5,15.28,0,63.83
333.953125,20.45,23.5,52.2,80.1,31.5,15.28,0,63.83
333.9609375,19.3,20.6,52.2,80.1,31.5,15.28,0,63.83
333.96875,20.25,21.95,52.2,80.1,31.5,15.28,0,63.83
333.9765625,20,22.55,52.2,80.1,31.5,15.28,0,63.83
333.984375,27.55,28.15,52.2,80.1,31.5,15.28,0,63.83
333.9921875,35.7,32.25,52.2,80.1,31.5,15.28,0,63.83
334,39.5,34.15,52.2,80.1,31.5,15.28,0,63.83
334.0078125,34.4,31.85,52.2,80.1,31.5,15.28,0,63.83
334.015625,25.05,28.05,52.2,80.1,31.5,15.28,0,63.83
334.0234375,21.25,25.2,52.2,80.1,31.5,15.28,0,63.83
334.03125,21.85,25.65,52.2,80.1,31.5,15.28,0,63.83
334.0390625,23.4,28.5,52.2,80.1,31.5,15.28,0,63.83
334.046875,21.55,28.15,52.2,80.1,31.5,15.28,0,63.83
334.0546875,23.4,27.9,52.2,80.1,31.5,15.28,0,63.83
334.0625,22.85,26.8,52.2,80.1,31.5,15.28,0,63.83
334.0703125,26.4,30.45,52.2,80.1,31.5,15.28,0,63.83
334.078125,27.7,31.85,52.2,80.1,31.5,15.28,0,63.83
334.0859375,33.85,35.05,52.2,80.1,31.5,15.28,0,63.83
334.09375,39.85,37.05,52.2,80.1,31.5,15.28,0,63.83
334.1015625,44.65,38.9,52.2,80.1,31.5,15.28,0,63.83
334.109375,39.35,34.3,52.2,80.1,31.5,15.28,0,63.83
334.1171875,32.1,29.75,52.2,80.1,31.5,15.28,0,63.83
334.125,28,27.2,52.2,80.1,31.5,15.28,0,63.83
334.1328125,31.9,30.4,52.2,80.1,31.5,15.28,0,63.83
334.140625,36.5,33.65,52.2,80.1,31.5,15.28,0,63.83
334.1484375,37.75,34.3,52.2,80.1,31.5,15.28,0,63.83
334.15625,40.85,35.1,51.4,80.8,31.1,15.29,0,63.81
334.1640625,44.45,35.45,51.4,80.8,31.1,15.29,0,63.81
334.171875,51.55,38.55,51.4,80.8,31.1,15.29,0,63.81
334.1796875,56.15,40.85,51.4,80.8,31.1,15.29,0,63.81
334.1875,57.65,42.8,51.4,80.8,31.1,15.29,0,63.81
334.1953125,52,41.05,51.4,80.8,31.1,15.29,0,63.81
334.203125,50.7,43.3,51.4,80.8,31.1,15.29,0,63.81
334.2109375,48.6,42.55,51.4,80.8,31.1,15.29,0,63.81
334.21875,48.65,42.25,51.4,80.8,31.1,15.29,0,63.81
334.2265625,44.15,37.15,51.4,80.8,31.1,15.29,0,63.81
334.234375,36.8,30.8,51.4,80.8,31.1,15.29,0,63.81
334.2421875,28,23.2,51.4,80.8,31.1,15.29,0,63.81
334.25,23.25,20.4,51.4,80.8,31.1,15.29,0,63.81
334.2578125,20.7,19.15,51.4,80.8,31.1,15.29,0,63.81
334.265625,19.5,18.75,51.4,80.8,31.1,15.29,0,63.81
334.2734375,19.85,18.7,51.4,80.8,31.1,15.29,0,63.81
334.28125,16.55,17.5,51.4,80.8,31.1,15.29,0,63.81
334.2890625,14.45,16.7,51.4,80.8,31.1,15.29,0,63.81
334.296875,13.15,14.8,51.4,80.8,31.1,15.29,0,63.81
334.3046875,17.2,16.5,51.4,80.8,31.1,15.29,0,63.81
334.3125,14.6,15.25,51.4,80.8,31.1,15.29,0,63.81
334.3203125,10.9,14.65,51.4,80.8,31.1,15.29,0,63.81
334.328125,7.7,12.7,51.4,80.8,31.1,15.29,0,63.81
334.3359375,13.1,14.4,51.4,80.8,31.1,15.29,0,63.81
334.34375,15.1,12.6,51.4,80.8,31.1,15.29,0,63.81
334.3515625,18.35,14.25,51.4,80.8,31.1,15.29,0,63.81
334.359375,19.35,15.4,51.4,80.8,31.1,15.29,0,63.81
334.3671875,20.85,17.6,51.4,80.8,31.1,15.29,0,63.81
334.375,20,16.7,51.4,80.8,31.1,15.29,0,63.81
334.3828125,16.35,14.45,51.4,80.8,31.1,15.29,0,63.81
334.390625,10.75,11.75,51.4,80.8,31.1,15.29,0,63.81
334.3984375,10.1,12.25,51.4,80.8,31.1,15.29,0,63.81
334.40625,19.15,17.6,51.4,80.8,31.1,15.29,0,63.81
334.4140625,29.6,23.55,51.4,80.8,31.1,15.29,0,63.81
334.421875,41.15,30.2,51.4,80.8,31.1,15.29,0,63.81
334.4296875,46.4,33,51.4,80.8,31.1,15.29,0,63.81
334.4375,48.85,34.6,51.4,80.8,31.1,15.29,0,63.81
334.4453125,44.7,31.05,51.4,80.8,31.1,15.29,0,63.81
334.453125,40.65,29.4,51.4,80.8,31.1,15.29,0,63.81
334.4609375,30.8,25.1,51.4,80.8,31.1,15.29,0,63.81
334.46875,25.3,23.75,51.4,80.8,31.1,15.29,0,63.81
334.4765625,23,23.65,51.4,80.8,31.1,15.29,0,63.81
334.484375,27.65,27.3,51.4,80.8,31.1,15.29,0,63.81
334.4921875,33.4,28.7,51.4,80.8,31.1,15.29,0,63.81
334.5,36.4,29.6,51.4,80.8,31.1,15.29,0,63.81
334.5078125,33.4,27.65,51.4,80.8,31.1,15.29,0,63.81
334.515625,28.2,26.05,51.4,80.8,31.1,15.29,0,63.81
334.5234375,25.15,26.8,51.4,80.8,31.1,15.29,0,63.81
334.53125,23.35,28.2,51.4,80.8,31.1,15.29,0,63.81
334.5390625,25.9,31.4,51.4,80.8,31.1,15.29,0,63.81
334.546875,24.8,32.25,51.4,80.8,31.1,15.29,0,63.81
334.5546875,25.05,32.8,51.4,80.8,31.1,15.29,0,63.81
334.5625,24.25,30.6,51.4,80.8,31.1,15.29,0,63.81
334.5703125,26.75,32,51.4,80.8,31.1,15.29,0,63.81
334.578125,25.3,31.35,51.4,80.8,31.1,15.29,0,63.81
334.5859375,27.05,32.8,51.4,80.8,31.1,15.29,0,63.81
334.59375,26.25,30.85,51.4,80.8,31.1,15.29,0,63.81
334.6015625,27.25,30,51.4,80.8,31.1,15.29,0,63.81
334.609375,25.5,26.9,51.4,80.8,31.1,15.29,0,63.81
334.6171875,23.05,25.2,51.4,80.8,31.1,15.29,0,63.81
334.625,17.3,21.65,51.4,80.8,31.1,15.29,0,63.81
334.6328125,15.4,21.1,51.4,80.8,31.1,15.29,0,63.81
334.640625,18.4,22.5,51.4,80.8,31.1,15.29,0,63.81
334.6484375,24.35,26.5,51.4,80.8,31.1,15.29,0,63.81
334.65625,31.75,30.8,51.4,80.8,31.1,15.29,0,63.81
334.6640625,37.35,32.7,51.4,80.8,31.1,15.29,0,63.81
334.671875,43.65,34.6,51.4,80.8,31.1,15.29,0,63.81
334.6796875,44.4,34.25,51.4,80.8,31.1,15.29,0,63.81
334.6875,46.3,35.75,51.4,80.8,31.1,15.29,0,63.81
334.6953125,45.2,35.25,51.4,80.8,31.1,15.29,0,63.81
334.703125,45.05,35.9,51.4,80.8,31.1,15.29,0,63.81
334.7109375,42.15,34.3,51.4,80.8,31.1,15.29,0,63.81
334.71875,44.45,36.2,51.4,80.8,31.1,15.29,0,63.81
334.7265625,41.15,32.75,51.4,80.8,31.1,15.29,0,63.81
334.734375,38.5,29.4,51.4,80.8,31.1,15.29,0,63.81
334.7421875,35.3,26.6,51.4,80.8,31.1,15.29,0,63.81
334.75,30.55,25.25,51.4,80.8,31.1,15.29,0,63.81
334.7578125,24.8,22.8,51.4,80.8,31.1,15.29,0,63.81
334.765625,26.1,23.1,51.4,80.8,31.1,15.29,0,63.81
334.7734375,32,24.6,51.4,80.8,31.1,15.29,0,63.81
334.78125,35.7,25,51.4,80.8,31.1,15.29,0,63.81
334.7890625,38.15,25.5,51.4,80.8,31.1,15.29,0,63.81
334.796875,36.5,23.7,51.4,80.8,31.1,15.29,0,63.81
334.8046875,36.1,23.7,51.4,80.8,31.1,15.29,0,63.81
334.8125,34.2,22.25,51.4,80.8,31.1,15.29,0,63.81
334.8203125,40.1,25.05,51.4,80.8,31.1,15.29,0,63.81
334.828125,45.45,26.8,51.4,80.8,31.1,15.29,0,63.81
334.8359375,51.95,30.25,51.4,80.8,31.1,15.29,0,63.81
334.84375,56.4,31,51.4,80.8,31.1,15.29,0,63.81
334.8515625,61.65,34.8,51.4,80.8,31.1,15.29,0,63.81
334.859375,55.3,33.15,51.4,80.8,31.1,15.29,0,63.81
334.8671875,44.6,29.65,51.4,80.8,31.1,15.29,0,63.81
334.875,36,24.95,51.4,80.8,31.1,15.29,0,63.81
334.8828125,33.2,23.55,51.4,80.8,31.1,15.29,0,63.81
334.890625,34.15,23.4,51.4,80.8,31.1,15.29,0,63.81
334.8984375,37.75,25.75,51.4,80.8,31.1,15.29,0,63.81
334.90625,43.95,29.15,51.4,80.8,31.1,15.29,0,63.81
334.9140625,48.55,30.7,51.4,80.8,31.1,15.29,0,63.81
334.921875,54.55,33.9,51.4,80.8,31.1,15.29,0,63.81
334.9296875,56.1,36.05,51.4,80.8,31.1,15.29,0,63.81
334.9375,59.5,39.45,51.4,80.8,31.1,15.29,0,63.81
334.9453125,60.9,39.7,51.4,80.8,31.1,15.29,0,63.81
334.953125,66.15,41.95,51.4,80.8,31.1,15.29,0,63.81
334.9609375,65.4,39.95,51.4,80.8,31.1,15.29,0,63.81
334.96875,64.8,40.75,51.4,80.8,31.1,15.29,0,63.81
334.9765625,59.95,39.9,51.4,80.8,31.1,15.29,0,63.81
334.984375,54.7,39.85,51.4,80.8,31.1,15.29,0,63.81
334.9921875,46.8,37.45,51.4,80.8,31.1,15.29,0,63.81
335,41.05,36.15,51.4,80.8,31.1,15.29,0,63.81
335.0078125,38.05,33.8,51.4,80.8,31.1,15.29,0,63.81
335.015625,39.05,34.2,51.4,80.8,31.1,15.29,0,63.81
335.0234375,40.55,36.1,51.4,80.8,31.1,15.29,0,63.81
335.03125,39.75,36.85,51.4,80.8,31.1,15.29,0,63.81
335.0390625,42.45,38.4,51.4,80.8,31.1,15.29,0,63.81
335.046875,42.45,37.9,51.4,80.8,31.1,15.29,0,63.81
335.0546875,41.3,37.2,51.4,80.8,31.1,15.29,0,63.81
335.0625,39.4,34.6,51.4,80.8,31.1,15.29,0,63.81
335.0703125,43.55,35.95,51.4,80.8,31.1,15.29,0,63.81
335.078125,45.1,35.6,51.4,80.8,31.1,15.29,0,63.81
335.0859375,49.75,37.55,51.4,80.8,31.1,15.29,0,63.81
335.09375,51.35,36.25,51.4,80.8,31.1,15.29,0,63.81
335.1015625,54.7,37.45,51.4,80.8,31.1,15.29,0,63.81
335.109375,54.2,36.15,51.4,80.8,31.1,15.29,0,63.81
335.1171875,52.25,35.7,51.4,80.8,31.1,15.29,0,63.81
335.125,47.95,34.3,51.4,80.8,31.1,15.29,0,63.81
335.1328125,47.3,36.65,51.4,80.8,31.1,15.29,0,63.81
335.140625,49.85,40.25,51.4,80.8,31.1,15.29,0,63.81
335.1484375,51.6,42.4,51.4,80.8,31.1,15.29,0,63.81
335.15625,50.5,41.2,51.7,82.1,30.87,15.28,0,63.89
335.1640625,44.35,36.7,51.7,82.1,30.87,15.28,0,63.89
335.171875,39.35,32.6,51.7,82.1,30.87,15.28,0,63.89
335.1796875,32.25,27.05,51.7,82.1,30.87,15.28,0,63.89
335.1875,29.1,26,51.7,82.1,30.87,15.28,0,63.89
335.1953125,24.25,25.5,51.7,82.1,30.87,15.28,0,63.89
335.203125,23.8,28.5,51.7,82.1,30.87,15.28,0,63.89
335.2109375,22.3,29.15,51.7,82.1,30.87,15.28,0,63.89
335.21875,22.4,29.85,51.7,82.1,30.87,15.28,0,63.89
335.2265625,19.3,26.5,51.7,82.1,30.87,15.28,0,63.89
335.234375,20.45,27,51.7,82.1,30.87,15.28,0,63.89
335.2421875,20.15,26.6,51.7,82.1,30.87,15.28,0,63.89
335.25,23.05,27.8,51.7,82.1,30.87,15.28,0,63.89
335.2578125,29.65,30.4,51.7,82.1,30.87,15.28,0,63.89
335.265625,33.85,33.1,51.7,82.1,30.87,15.28,0,63.89
335.2734375,32.8,33.65,51.7,82.1,30.87,15.28,0,63.89
335.28125,30.65,34.65,51.7,82.1,30.87,15.28,0,63.89
335.2890625,33.05,36.7,51.7,82.1,30.87,15.28,0,63.89
335.296875,36.9,37.9,51.7,82.1,30.87,15.28,0,63.89
335.3046875,44.35,41.65,51.7,82.1,30.87,15.28,0,63.89
335.3125,47.2,42.1,51.7,82.1,30.87,15.28,0,63.89
335.3203125,47.4,42.2,51.7,82.1,30.87,15.28,0,63.89
335.328125,41.1,39.8,51.7,82.1,30.87,15.28,0,63.89
335.3359375,40.05,41.35,51.7,82.1,30.87,15.28,0,63.89
335.34375,40.4,41.65,51.7,82.1,30.87,15.28,0,63.89
335.3515625,44.75,44.35,51.7,82.1,30.87,15.28,0,63.89
335.359375,47.9,45.05,51.7,82.1,30.87,15.28,0,63.89
335.3671875,51.7,47.2,51.7,82.1,30.87,15.28,0,63.89
335.375,49.1,45.1,51.7,82.1,30.87,15.28,0,63.89
335.3828125,45.15,43.95,51.7,82.1,30.87,15.28,0,63.89
335.390625,41.7,44,51.7,82.1,30.87,15.28,0,63.89
335.3984375,38.75,43.4,51.7,82.1,30.87,15.28,0,63.89
335.40625,37.95,42.95,51.7,82.1,30.87,15.28,0,63.89
335.4140625,35.95,42.35,51.7,82.1,30.87,15.28,0,63.89
335.421875,36.55,42.3,51.7,82.1,30.87,15.28,0,63.89
335.4296875,37,41.5,51.7,82.1,30.87,15.28,0,63.89
335.4375,41.6,45.15,51.7,82.1,30.87,15.28,0,63.89
335.4453125,44.5,47,51.7,82.1,30.87,15.28,0,63.89
335.453125,50.8,50.15,51.7,82.1,30.87,15.28,0,63.89
335.4609375,54.7,50.25,51.7,82.1,30.87,15.28,0,63.89
335.46875,61.9,52.55,51.7,82.1,30.87,15.28,0,63.89
335.4765625,67.6,55.2,51.7,82.1,30.87,15.28,0,63.89
335.484375,70,59.4,51.7,82.1,30.87,15.28,0,63.89
335.4921875,63.65,58.45,51.7,82.1,30.87,15.28,0,63.89
335.5,56.3,56.95,51.7,82.1,30.87,15.28,0,63.89
335.5078125,49.1,53.55,51.7,82.1,30.87,15.28,0,63.89
335.515625,42.35,49.4,51.7,82.1,30.87,15.28,0,63.89
335.5234375,39.1,45.3,51.7,82.1,30.87,15.28,0,63.89
335.53125,38.6,42.5,51.7,82.1,30.87,15.28,0,63.89
335.5390625,42.35,42.75,51.7,82.1,30.87,15.28,0,63.89
335.546875,44.25,44.8,51.7,82.1,30.87,15.28,0,63.89
335.5546875,47.75,50.35,51.7,82.1,30.87,15.28,0,63.89
335.5625,49.9,53.65,51.7,82.1,30.87,15.28,0,63.89
335.5703125,55.25,57.3,51.7,82.1,30.87,15.28,0,63.89
335.578125,52.6,53.65,51.7,82.1,30.87,15.28,0,63.89
335.5859375,51.35,50.15,51.7,82.1,30.87,15.28,0,63.89
335.59375,47.05,44.65,51.7,82.1,30.87,15.28,0,63.89
335.6015625,43.4,42.85,51.7,82.1,30.87,15.28,0,63.89
335.609375,38.55,40.8,51.7,82.1,30.87,15.28,0,63.89
335.6171875,38.35,42.1,51.7,82.1,30.87,15.28,0,63.89
335.625,37.85,41.2,51.7,82.1,30.87,15.28,0,63.89
335.6328125,41.8,43.4,51.7,82.1,30.87,15.28,0,63.89
335.640625,48.75,46.3,51.7,82.1,30.87,15.28,0,63.89
335.6484375,55.25,48.05,51.7,82.1,30.87,15.28,0,63.89
335.65625,60.65,49.5,51.7,82.1,30.87,15.28,0,63.89
335.6640625,60.95,49.65,51.7,82.1,30.87,15.28,0,63.89
335.671875,60.4,49,51.7,82.1,30.87,15.28,0,63.89
335.6796875,58.2,48.05,51.7,82.1,30.87,15.28,0,63.89
335.6875,56.55,49.3,51.7,82.1,30.87,15.28,0,63.89
335.6953125,50.3,46.4,51.7,82.1,30.87,15.28,0,63.89
335.703125,50.25,45.35,51.7,82.1,30.87,15.28,0,63.89
335.7109375,49.8,42.15,51.7,82.1,30.87,15.28,0,63.89
335.71875,53.05,41.75,51.7,82.1,30.87,15.28,0,63.89
335.7265625,53.95,40.5,51.7,82.1,30.87,15.28,0,63.89
335.734375,56,41.4,51.7,82.1,30.87,15.28,0,63.89
335.7421875,53.9,39.9,51.7,82.1,30.87,15.28,0,63.89
335.75,52.8,40.75,51.7,82.1,30.87,15.28,0,63.89
335.7578125,52.7,41.35,51.7,82.1,30.87,15.28,0,63.89
335.765625,52.4,40.45,51.7,82.1,30.87,15.28,0,63.89
335.7734375,49.15,37.1,51.7,82.1,30.87,15.28,0,63.89
335.78125,43.1,33.55,51.7,82.1,30.87,15.28,0,63.89
335.7890625,39.55,31.5,51.7,82.1,30.87,15.28,0,63.89
335.796875,38.05,29.35,51.7,82.1,30.87,15.28,0,63.89
335.8046875,40.05,29.8,51.7,82.1,30.87,15.28,0,63.89
335.8125,37.8,29.1,51.7,82.1,30.87,15.28,0,63.89
335.8203125,38.05,31.05,51.7,82.1,30.87,15.28,0,63.89
335.828125,34.95,29.8,51.7,82.1,30.87,15.28,0,63.89
335.8359375,36.5,31.75,51.7,82.1,30.87,15.28,0,63.89
335.84375,39.5,32.65,51.7,82.1,30.87,15.28,0,63.89
335.8515625,44.3,36.05,51.7,82.1,30.87,15.28,0,63.89
335.859375,44.2,37.05,51.7,82.1,30.87,15.28,0,63.89
335.8671875,44.55,39.55,51.7,82.1,30.87,15.28,0,63.89
335.875,41.85,38.1,51.7,82.1,30.87,15.28,0,63.89
335.8828125,43.3,38.6,51.7,82.1,30.87,15.28,0,63.89
335.890625,51.15,40.85,51.7,82.1,30.87,15.28,0,63.89
335.8984375,57.6,42.5,51.7,82.1,30.87,15.28,0,63.89
335.90625,59.2,42.75,51.7,82.1,30.87,15.28,0,63.89
335.9140625,55.2,42,51.7,82.1,30.87,15.28,0,63.89
335.921875,51.15,41.25,51.7,82.1,30.87,15.28,0,63.89
335.9296875,45.6,38.1,51.7,82.1,30.87,15.28,0,63.89
335.9375,47.2,38.5,51.7,82.1,30.87,15.28,0,63.89
335.9453125,49.9,38.8,51.7,82.1,30.87,15.28,0,63.89
335.953125,54.75,40.2,51.7,82.1,30.87,15.28,0,63.89
335.9609375,53.05,37.45,51.7,82.1,30.87,15.28,0,63.89
335.96875,52.3,37.1,51.7,82.1,30.87,15.28,0,63.89
335.9765625,48.6,34.5,51.7,82.1,30.87,15.28,0,63.89
335.984375,48.2,34.8,51.7,82.1,30.87,15.28,0,63.89
335.9921875,46.45,33.5,51.7,82.1,30.87,15.28,0,63.89
336,45,33.5,51.7,82.1,30.87,15.28,0,63.89
336.0078125,42.05,31.15,51.7,82.1,30.87,15.28,0,63.89
336.015625,40.95,29.3,51.7,82.1,30.87,15.28,0,63.89
336.0234375,39.6,26.6,51.7,82.1,30.87,15.28,0,63.89
336.03125,37.95,24.45,51.7,82.1,30.87,15.28,0,63.89
336.0390625,40.55,25.05,51.7,82.1,30.87,15.28,0,63.89
336.046875,41.65,24.55,51.7,82.1,30.87,15.28,0,63.89
336.0546875,43.6,24.25,51.7,82.1,30.87,15.28,0,63.89
336.0625,41.1,22.2,51.7,82.1,30.87,15.28,0,63.89
336.0703125,37.55,21.65,51.7,82.1,30.87,15.28,0,63.89
336.078125,31.7,18.85,51.7,82.1,30.87,15.28,0,63.89
336.0859375,33.6,21.15,51.7,82.1,30.87,15.28,0,63.89
336.09375,32.85,21.05,51.7,82.1,30.87,15.28,0,63.89
336.1015625,30.85,20.4,51.7,82.1,30.87,15.28,0,63.89
336.109375,27.3,17.3,51.7,82.1,30.87,15.28,0,63.89
336.1171875,29.4,17.7,51.7,82.1,30.87,15.28,0,63.89
336.125,28.65,15.15,51.7,82.1,30.87,15.28,0,63.89
336.1328125,25.95,12.95,51.7,82.1,30.87,15.28,0,63.89
336.140625,23.65,10.9,51.7,82.1,30.87,15.28,0,63.89
336.1484375,25.2,11.8,51.7,82.1,30.87,15.28,0,63.89
336.15625,30.35,15.1,50.1,83.3,30.53,15.13,0,64.11
336.1640625,34.65,17.5,50.1,83.3,30.53,15.13,0,64.11
336.171875,39.45,20,50.1,83.3,30.53,15.13,0,64.11
336.1796875,40.3,20.35,50.1,83.3,30.53,15.13,0,64.11
336.1875,41.8,21.95,50.1,83.3,30.53,15.13,0,64.11
336.1953125,38.3,20.35,50.1,83.3,30.53,15.13,0,64.11
336.203125,35.15,19.15,50.1,83.3,30.53,15.13,0,64.11
336.2109375,29.45,15.8,50.1,83.3,30.53,15.13,0,64.11
336.21875,29.15,16.95,50.1,83.3,30.53,15.13,0,64.11
336.2265625,26.25,15.5,50.1,83.3,30.53,15.13,0,64.11
336.234375,23.9,16.75,50.1,83.3,30.53,15.13,0,64.11
336.2421875,20.25,17.35,50.1,83.3,30.53,15.13,0,64.11
336.25,22.45,20.75,50.1,83.3,30.53,15.13,0,64.11
336.2578125,28.55,25.55,50.1,83.3,30.53,15.13,0,64.11
336.265625,36.9,32.6,50.1,83.3,30.53,15.13,0,64.11
336.2734375,41.85,35.5,50.1,83.3,30.53,15.13,0,64.11
336.28125,44.5,36.45,50.1,83.3,30.53,15.13,0,64.11
336.2890625,47.75,37.7,50.1,83.3,30.53,15.13,0,64.11
336.296875,46.55,35.3,50.1,83.3,30.53,15.13,0,64.11
336.3046875,46.5,33.85,50.1,83.3,30.53,15.13,0,64.11
336.3125,45.85,32.3,50.1,83.3,30.53,15.13,0,64.11
336.3203125,49.5,33.3,50.1,83.3,30.53,15.13,0,64.11
336.328125,48.4,30.9,50.1,83.3,30.53,15.13,0,64.11
336.3359375,45.7,30.25,50.1,83.3,30.53,15.13,0,64.11
336.34375,36.35,27.25,50.1,83.3,30.53,15.13,0,64.11
336.3515625,31.3,27.55,50.1,83.3,30.53,15.13,0,64.11
336.359375,27.9,26.4,50.1,83.3,30.53,15.13,0,64.11
336.3671875,30.65,29.2,50.1,83.3,30.53,15.13,0,64.11
336.375,33.4,30.4,50.1,83.3,30.53,15.13,0,64.11
336.3828125,37.45,32.7,50.1,83.3,30.53,15.13,0,64.11
336.390625,38.4,33.4,50.1,83.3,30.53,15.13,0,64.11
336.3984375,35.4,32.05,50.1,83.3,30.53,15.13,0,64.11
336.40625,32.45,30.15,50.1,83.3,30.53,15.13,0,64.11
336.4140625,32.3,31.6,50.1,83.3,30.53,15.13,0,64.11
336.421875,33.75,33.25,50.1,83.3,30.53,15.13,0,64.11
336.4296875,28.65,30.75,50.1,83.3,30.53,15.13,0,64.11
336.4375,25.8,30.5,50.1,83.3,30.53,15.13,0,64.11
336.4453125,22.8,29.35,50.1,83.3,30.53,15.13,0,64.11
336.453125,25.3,30.8,50.1,83.3,30.53,15.13,0,64.11
336.4609375,27.2,31.4,50.1,83.3,30.53,15.13,0,64.11
336.46875,32.35,34.2,50.1,83.3,30.53,15.13,0,64.11
336.4765625,33.15,33.5,50.1,83.3,30.53,15.13,0,64.11
336.484375,34.1,33.85,50.1,83.3,30.53,15.13,0,64.11
336.4921875,30.3,31.9,50.1,83.3,30.53,15.13,0,64.11
336.5,28.5,32.1,50.1,83.3,30.53,15.13,0,64.11
336.5078125,26.4,30.7,50.1,83.3,30.53,15.13,0,64.11
336.515625,24.05,29.85,50.1,83.3,30.53,15.13,0,64.11
336.5234375,23.1,28.35,50.1,83.3,30.53,15.13,0,64.11
336.53125,23.1,26.5,50.1,83.3,30.53,15.13,0,64.11
336.5390625,24.5,26.5,50.1,83.3,30.53,15.13,0,64.11
336.546875,23.45,25.3,50.1,83.3,30.53,15.13,0,64.11
336.5546875,22.65,23.8,50.1,83.3,30.53,15.13,0,64.11
336.5625,19.05,20.85,50.1,83.3,30.53,15.13,0,64.11
336.5703125,21.8,22.55,50.1,83.3,30.53,15.13,0,64.11
336.578125,22.6,22.7,50.1,83.3,30.53,15.13,0,64.11
336.5859375,24.2,24.6,50.1,83.3,30.53,15.13,0,64.11
336.59375,21,22.65,50.1,83.3,30.53,15.13,0,64.11
336.6015625,19.2,21.55,50.1,83.3,30.53,15.13,0,64.11
336.609375,13,17.05,50.1,83.3,30.53,15.13,0,64.11
336.6171875,10.45,14.85,50.1,83.3,30.53,15.13,0,64.11
336.625,7.45,12.1,50.1,83.3,30.53,15.13,0,64.11
336.6328125,6.95,12.3,50.1,83.3,30.53,15.13,0,64.11
336.640625,7.7,13.05,50.1,83.3,30.53,15.13,0,64.11
336.6484375,11.6,16.7,50.1,83.3,30.53,15.13,0,64.11
336.65625,17.15,21.65,50.1,83.3,30.53,15.13,0,64.11
336.6640625,20.4,25.05,50.1,83.3,30.53,15.13,0,64.11
336.671875,22.65,26.5,50.1,83.3,30.53,15.13,0,64.11
336.6796875,21.45,25.2,50.1,83.3,30.53,15.13,0,64.11
336.6875,21.9,24.65,50.1,83.3,30.53,15.13,0,64.11
336.6953125,19.05,21.7,50.1,83.3,30.53,15.13,0,64.11
336.703125,20.4,22.2,50.1,83.3,30.53,15.13,0,64.11
336.7109375,19.15,20.85,50.1,83.3,30.53,15.13,0,64.11
336.71875,19.75,21.05,50.1,83.3,30.53,15.13,0,64.11
336.7265625,18.3,18.85,50.1,83.3,30.53,15.13,0,64.11
336.734375,20.5,19.7,50.1,83.3,30.53,15.13,0,64.11
336.7421875,19.55,18.15,50.1,83.3,30.53,15.13,0,64.11
336.75,20.9,19,50.1,83.3,30.53,15.13,0,64.11
336.7578125,22,18.95,50.1,83.3,30.53,15.13,0,64.11
336.765625,21.2,18.9,50.1,83.3,30.53,15.13,0,64.11
336.7734375,21.7,19.1,50.1,83.3,30.53,15.13,0,64.11
336.78125,24.85,20.75,50.1,83.3,30.53,15.13,0,64.11
336.7890625,28.3,22.85,50.1,83.3,30.53,15.13,0,64.11
336.796875,29.85,23.8,50.1,83.3,30.53,15.13,0,64.11
336.8046875,32,23.7,50.1,83.3,30.53,15.13,0,64.11
336.8125,27.65,19.9,50.1,83.3,30.53,15.13,0,64.11
336.8203125,24.55,17.8,50.1,83.3,30.53,15.13,0,64.11
336.828125,18.5,13.9,50.1,83.3,30.53,15.13,0,64.11
336.8359375,15.75,13.05,50.1,83.3,30.53,15.13,0,64.11
336.84375,12.4,11.85,50.1,83.3,30.53,15.13,0,64.11
336.8515625,13.75,14.35,50.1,83.3,30.53,15.13,0,64.11
336.859375,12.3,15.35,50.1,83.3,30.53,15.13,0,64.11
336.8671875,14.95,18.75,50.1,83.3,30.53,15.13,0,64.11
336.875,19,21.05,50.1,83.3,30.53,15.13,0,64.11
336.8828125,25.1,25.1,50.1,83.3,30.53,15.13,0,64.11
336.890625,27.65,27.75,50.1,83.3,30.53,15.13,0,64.11
336.8984375,25,27.25,50.1,83.3,30.53,15.13,0,64.11
336.90625,20.75,24.1,50.1,83.3,30.53,15.13,0,64.11
336.9140625,15.4,21.25,50.1,83.3,30.53,15.13,0,64.11
336.921875,11.25,19.65,50.1,83.3,30.53,15.13,0,64.11
336.9296875,5.8,17.15,50.1,83.3,30.53,15.13,0,64.11
336.9375,7.05,19.35,50.1,83.3,30.53,15.13,0,64.11
336.9453125,9.7,20.35,50.1,83.3,30.53,15.13,0,64.11
336.953125,17.35,22.95,50.1,83.3,30.53,15.13,0,64.11
336.9609375,23.6,25.5,50.1,83.3,30.53,15.13,0,64.11
336.96875,34.95,31.7,50.1,83.3,30.53,15.13,0,64.11
336.9765625,39.2,31.85,50.1,83.3,30.53,15.13,0,64.11
336.984375,38.8,32.05,50.1,83.3,30.53,15.13,0,64.11
336.9921875,35.55,30.4,50.1,83.3,30.53,15.13,0,64.11
337,35.45,30.3,50.1,83.3,30.53,15.13,0,64.11
337.0078125,30.8,27.05,50.1,83.3,30.53,15.13,0,64.11
337.015625,26.8,25.75,50.1,83.3,30.53,15.13,0,64.11
337.0234375,24.8,25.45,50.1,83.3,30.53,15.13,0,64.11
337.03125,23.05,24.5,50.1,83.3,30.53,15.13,0,64.11
337.0390625,25.4,24.75,50.1,83.3,30.53,15.13,0,64.11
337.046875,28.75,25.6,50.1,83.3,30.53,15.13,0,64.11
337.0546875,32.75,26.5,50.1,83.3,30.53,15.13,0,64.11
337.0625,32.05,25,50.1,83.3,30.53,15.13,0,64.11
337.0703125,33.5,26.4,50.1,83.3,30.53,15.13,0,64.11
337.078125,32.65,25.7,50.1,83.3,30.53,15.13,0,64.11
337.0859375,35.25,26.9,50.1,83.3,30.53,15.13,0,64.11
337.09375,34.85,26.6,50.1,83.3,30.53,15.13,0,64.11
337.1015625,37.45,28.25,50.1,83.3,30.53,15.13,0,64.11
337.109375,36.05,26.65,50.1,83.3,30.53,15.13,0,64.11
337.1171875,33.55,26.25,50.1,83.3,30.53,15.13,0,64.11
337.125,30.65,24.85,50.1,83.3,30.53,15.13,0,64.11
337.1328125,35.15,28.2,50.1,83.3,30.53,15.13,0,64.11
337.140625,38.35,30.2,50.1,83.3,30.53,15.13,0,64.11
337.1484375,36.8,29.35,50.1,83.3,30.53,15.13,0,64.11
337.15625,33.35,27.15,48.7,84.6,30.29,15.06,0,64.13
337.1640625,29.75,25.2,48.7,84.6,30.29,15.06,0,64.13
337.171875,30.95,26.6,48.7,84.6,30.29,15.06,0,64.13
337.1796875,33.6,28.6,48.7,84.6,30.29,15.06,0,64.13
337.1875,35.8,29,48.7,84.6,30.29,15.06,0,64.13
337.1953125,32,25.85,48.7,84.6,30.29,15.06,0,64.13
337.203125,31.3,26.7,48.7,84.6,30.29,15.06,0,64.13
337.2109375,26.8,24.5,48.7,84.6,30.29,15.06,0,64.13
337.21875,24.05,24.1,48.7,84.6,30.29,15.06,0,64.13
337.2265625,19.7,22.55,48.7,84.6,30.29,15.06,0,64.13
337.234375,20.9,23.95,48.7,84.6,30.29,15.06,0,64.13
337.2421875,21.2,23.15,48.7,84.6,30.29,15.06,0,64.13
337.25,24.05,24.3,48.7,84.6,30.29,15.06,0,64.13
337.2578125,25.9,23.9,48.7,84.6,30.29,15.06,0,64.13
337.265625,28.6,26.4,48.7,84.6,30.29,15.06,0,64.13
337.2734375,32.4,30.85,48.7,84.6,30.29,15.06,0,64.13
337.28125,36.45,34.75,48.7,84.6,30.29,15.06,0,64.13
337.2890625,39.85,36.45,48.7,84.6,30.29,15.06,0,64.13
337.296875,41.25,38.35,48.7,84.6,30.29,15.06,0,64.13
337.3046875,44.1,42.1,48.7,84.6,30.29,15.06,0,64.13
337.3125,43.85,42.8,48.7,84.6,30.29,15.06,0,64.13
337.3203125,48,44.15,48.7,84.6,30.29,15.06,0,64.13
337.328125,49.35,42.85,48.7,84.6,30.29,15.06,0,64.13
337.3359375,50.4,43.95,48.7,84.6,30.29,15.06,0,64.13
337.34375,47.25,43,48.7,84.6,30.29,15.06,0,64.13
337.3515625,47.3,43.85,48.7,84.6,30.29,15.06,0,64.13
337.359375,46.6,43.1,48.7,84.6,30.29,15.06,0,64.13
337.3671875,50.6,45.95,48.7,84.6,30.29,15.06,0,64.13
337.375,53.95,47.15,48.7,84.6,30.29,15.06,0,64.13
337.3828125,56.65,48.25,48.7,84.6,30.29,15.06,0,64.13
337.390625,57.3,46.85,48.7,84.6,30.29,15.06,0,64.13
337.3984375,58.85,46.75,48.7,84.6,30.29,15.06,0,64.13
337.40625,60.75,48,48.7,84.6,30.29,15.06,0,64.13
337.4140625,59.3,47.1,48.7,84.6,30.29,15.06,0,64.13
337.421875,58.8,45.7,48.7,84.6,30.29,15.06,0,64.13
337.4296875,57.75,43.95,48.7,84.6,30.29,15.06,0,64.13
337.4375,57.6,44.5,48.7,84.6,30.29,15.06,0,64.13
337.4453125,53.15,43.45,48.7,84.6,30.29,15.06,0,64.13
337.453125,54.25,46.8,48.7,84.6,30.29,15.06,0,64.13
337.4609375,55,48.3,48.7,84.6,30.29,15.06,0,64.13
337.46875,58.5,50.75,48.7,84.6,30.29,15.06,0,64.13
337.4765625,56.9,47.55,48.7,84.6,30.29,15.06,0,64.13
337.484375,58.2,45.65,48.7,84.6,30.29,15.06,0,64.13
337.4921875,57.95,42.9,48.7,84.6,30.29,15.06,0,64.13
337.5,57.25,42.75,48.7,84.6,30.29,15.06,0,64.13
337.5078125,55,42.3,48.7,84.6,30.29,15.06,0,64.13
337.515625,56.65,44.4,48.7,84.6,30.29,15.06,0,64.13
337.5234375,58.35,45.75,48.7,84.6,30.29,15.06,0,64.13
337.53125,54.65,45.7,48.7,84.6,30.29,15.06,0,64.13
337.5390625,47.05,41.8,48.7,84.6,30.29,15.06,0,64.13
337.546875,38.6,33.95,48.7,84.6,30.29,15.06,0,64.13
337.5546875,38.3,29.45,48.7,84.6,30.29,15.06,0,64.13
337.5625,40,27.2,48.7,84.6,30.29,15.06,0,64.13
337.5703125,46,29.35,48.7,84.6,30.29,15.06,0,64.13
337.578125,49.3,31.3,48.7,84.6,30.29,15.06,0,64.13
337.5859375,52.3,34,48.7,84.6,30.29,15.06,0,64.13
337.59375,47.65,30.25,48.7,84.6,30.29,15.06,0,64.13
337.6015625,43.35,27.4,48.7,84.6,30.29,15.06,0,64.13
337.609375,37.85,23.25,48.7,84.6,30.29,15.06,0,64.13
337.6171875,39.4,24.1,48.7,84.6,30.29,15.06,0,64.13
337.625,41.6,24.8,48.7,84.6,30.29,15.06,0,64.13
337.6328125,45.45,26.6,48.7,84.6,30.29,15.06,0,64.13
337.640625,48.7,27.95,48.7,84.6,30.29,15.06,0,64.13
337.6484375,50.55,30.1,48.7,84.6,30.29,15.06,0,64.13
337.65625,49.85,30.55,48.7,84.6,30.29,15.06,0,64.13
337.6640625,48.2,30.65,48.7,84.6,30.29,15.06,0,64.13
337.671875,46.35,31.15,48.7,84.6,30.29,15.06,0,64.13
337.6796875,41.75,29.55,48.7,84.6,30.29,15.06,0,64.13
337.6875,41.5,29.5,48.7,84.6,30.29,15.06,0,64.13
337.6953125,40.3,27.5,48.7,84.6,30.29,15.06,0,64.13
337.703125,43.3,28.05,48.7,84.6,30.29,15.06,0,64.13
337.7109375,46.85,28.65,48.7,84.6,30.29,15.06,0,64.13
337.71875,51.55,31,48.7,84.6,30.29,15.06,0,64.13
337.7265625,46.75,28.25,48.7,84.6,30.29,15.06,0,64.13
337.734375,40.15,26.85,48.7,84.6,30.29,15.06,0,64.13
337.7421875,30.5,22.4,48.7,84.6,30.29,15.06,0,64.13
337.75,25.35,20.25,48.7,84.6,30.29,15.06,0,64.13
337.7578125,23.85,19.3,48.7,84.6,30.29,15.06,0,64.13
337.765625,25.15,21.15,48.7,84.6,30.29,15.06,0,64.13
337.7734375,23.7,21.4,48.7,84.6,30.29,15.06,0,64.13
337.78125,19.45,20.85,48.7,84.6,30.29,15.06,0,64.13
337.7890625,15.45,20.3,48.7,84.6,30.29,15.06,0,64.13
337.796875,11.95,20.1,48.7,84.6,30.29,15.06,0,64.13
337.8046875,14.8,21.6,48.7,84.6,30.29,15.06,0,64.13
337.8125,16.6,21.55,48.7,84.6,30.29,15.06,0,64.13
337.8203125,19.4,22.4,48.7,84.6,30.29,15.06,0,64.13
337.828125,19.1,20.95,48.7,84.6,30.29,15.06,0,64.13
337.8359375,21.7,22.4,48.7,84.6,30.29,15.06,0,64.13
337.84375,19.4,22.45,48.7,84.6,30.29,15.06,0,64.13
337.8515625,19.45,25.1,48.7,84.6,30.29,15.06,0,64.13
337.859375,16.15,24.05,48.7,84.6,30.29,15.06,0,64.13
337.8671875,15.85,24.8,48.7,84.6,30.29,15.06,0,64.13
337.875,17.55,25.6,48.7,84.6,30.29,15.06,0,64.13
337.8828125,24.55,29.75,48.7,84.6,30.29,15.06,0,64.13
337.890625,29.5,31.15,48.7,84.6,30.29,15.06,0,64.13
337.8984375,34.45,33.75,48.7,84.6,30.29,15.06,0,64.13
337.90625,39.7,36.8,48.7,84.6,30.29,15.06,0,64.13
337.9140625,40.75,37.3,48.7,84.6,30.29,15.06,0,64.13
337.921875,36.85,34.85,48.7,84.6,30.29,15.06,0,64.13
337.9296875,31.85,32.1,48.7,84.6,30.29,15.06,0,64.13
337.9375,35.35,34.1,48.7,84.6,30.29,15.06,0,64.13
337.9453125,37.8,34.85,48.7,84.6,30.29,15.06,0,64.13
337.953125,39.15,35.35,48.7,84.6,30.29,15.06,0,64.13
337.9609375,35.85,33.25,48.7,84.6,30.29,15.06,0,64.13
337.96875,36.8,35.8,48.7,84.6,30.29,15.06,0,64.13
337.9765625,36.65,35.55,48.7,84.6,30.29,15.06,0,64.13
337.984375,41.55,36.1,48.7,84.6,30.29,15.06,0,64.13
337.9921875,44.1,35,48.7,84.6,30.29,15.06,0,64.13
338,46.2,35.7,48.7,84.6,30.29,15.06,0,64.13
338.0078125,47.3,35.8,48.7,84.6,30.29,15.06,0,64.13
338.015625,51.25,40,48.7,84.6,30.29,15.06,0,64.13
338.0234375,54.1,42.9,48.7,84.6,30.29,15.06,0,64.13
338.03125,54.75,44.05,48.7,84.6,30.29,15.06,0,64.13
338.0390625,53.35,42.6,48.7,84.6,30.29,15.06,0,64.13
338.046875,47.35,36.95,48.7,84.6,30.29,15.06,0,64.13
338.0546875,43.3,32.05,48.7,84.6,30.29,15.06,0,64.13
338.0625,40.75,29.35,48.7,84.6,30.29,15.06,0,64.13
338.0703125,43.5,31.35,48.7,84.6,30.29,15.06,0,64.13
338.078125,43.8,33.05,48.7,84.6,30.29,15.06,0,64.13
338.0859375,45.85,36.85,48.7,84.6,30.29,15.06,0,64.13
338.09375,42.25,35.65,48.7,84.6,30.29,15.06,0,64.13
338.1015625,40,35,48.7,84.6,30.29,15.06,0,64.13
338.109375,35.85,31.65,48.7,84.6,30.29,15.06,0,64.13
338.1171875,37.35,32.75,48.7,84.6,30.29,15.06,0,64.13
338.125,38.35,34.3,48.7,84.6,30.29,15.06,0,64.13
338.1328125,38.05,35.9,48.7,84.6,30.29,15.06,0,64.13
338.140625,35.85,34.45,48.7,84.6,30.29,15.06,0,64.13
338.1484375,37.65,34.85,48.7,84.6,30.29,15.06,0,64.13
338.15625,41.6,35.2,48.2,85.9,29.75,15.22,0,63.88
338.1640625,44.95,35.4,48.2,85.9,29.75,15.22,0,63.88
338.171875,49.8,36.7,48.2,85.9,29.75,15.22,0,63.88
338.1796875,51.15,36.3,48.2,85.9,29.75,15.22,0,63.88
338.1875,53.2,37.55,48.2,85.9,29.75,15.22,0,63.88
338.1953125,53.5,38.15,48.2,85.9,29.75,15.22,0,63.88
338.203125,56.5,40.8,48.2,85.9,29.75,15.22,0,63.88
338.2109375,57.2,41.3,48.2,85.9,29.75,15.22,0,63.88
338.21875,59.8,43.25,48.2,85.9,29.75,15.22,0,63.88
338.2265625,55.15,42,48.2,85.9,29.75,15.22,0,63.88
338.234375,54.5,44.6,48.2,85.9,29.75,15.22,0,63.88
338.2421875,54.1,45,48.2,85.9,29.75,15.22,0,63.88
338.25,52.3,44.5,48.2,85.9,29.75,15.22,0,63.88
338.2578125,45.3,41.8,48.2,85.9,29.75,15.22,0,63.88
338.265625,40.7,41.25,48.2,85.9,29.75,15.22,0,63.88
338.2734375,38,40.4,48.2,85.9,29.75,15.22,0,63.88
338.28125,39.85,40.6,48.2,85.9,29.75,15.22,0,63.88
338.2890625,44.55,39.8,48.2,85.9,29.75,15.22,0,63.88
338.296875,48.1,39.5,48.2,85.9,29.75,15.22,0,63.88
338.3046875,54.75,43.4,48.2,85.9,29.75,15.22,0,63.88
338.3125,55.8,44.85,48.2,85.9,29.75,15.22,0,63.88
338.3203125,51.75,44.75,48.2,85.9,29.75,15.22,0,63.88
338.328125,45.75,43.2,48.2,85.9,29.75,15.22,0,63.88
338.3359375,48.15,45.35,48.2,85.9,29.75,15.22,0,63.88
338.34375,48.7,43.9,48.2,85.9,29.75,15.22,0,63.88
338.3515625,49.25,42.4,48.2,85.9,29.75,15.22,0,63.88
338.359375,44.8,37.2,48.2,85.9,29.75,15.22,0,63.88
338.3671875,43,35.35,48.2,85.9,29.75,15.22,0,63.88
338.375,39.1,32.45,48.2,85.9,29.75,15.22,0,63.88
338.3828125,36.95,31.6,48.2,85.9,29.75,15.22,0,63.88
338.390625,38.3,32.65,48.2,85.9,29.75,15.22,0,63.88
338.3984375,43.65,36.4,48.2,85.9,29.75,15.22,0,63.88
338.40625,47.4,38.6,48.2,85.9,29.75,15.22,0,63.88
338.4140625,47.55,39.2,48.2,85.9,29.75,15.22,0,63.88
338.421875,46.55,36.95,48.2,85.9,29.75,15.22,0,63.88
338.4296875,41.7,32,48.2,85.9,29.75,15.22,0,63.88
338.4375,39.6,30.5,48.2,85.9,29.75,15.22,0,63.88
338.4453125,35.25,27.6,48.2,85.9,29.75,15.22,0,63.88
338.453125,34.45,27.45,48.2,85.9,29.75,15.22,0,63.88
338.4609375,35.8,28.05,48.2,85.9,29.75,15.22,0,63.88
338.46875,48.05,33.6,48.2,85.9,29.75,15.22,0,63.88
338.4765625,56.7,36.75,48.2,85.9,29.75,15.22,0,63.88
338.484375,60.05,39.2,48.2,85.9,29.75,15.22,0,63.88
338.4921875,53.95,36.25,48.2,85.9,29.75,15.22,0,63.88
338.5,47.95,35.55,48.2,85.9,29.75,15.22,0,63.88
338.5078125,38.9,32.35,48.2,85.9,29.75,15.22,0,63.88
338.515625,31.85,29,48.2,85.9,29.75,15.22,0,63.88
338.5234375,28.2,26.6,48.2,85.9,29.75,15.22,0,63.88
338.53125,29.3,27.55,48.2,85.9,29.75,15.22,0,63.88
338.5390625,31.25,28.45,48.2,85.9,29.75,15.22,0,63.88
338.546875,30.85,28.85,48.2,85.9,29.75,15.22,0,63.88
338.5546875,29.95,28.75,48.2,85.9,29.75,15.22,0,63.88
338.5625,25.35,25.2,48.2,85.9,29.75,15.22,0,63.88
338.5703125,22.9,22.55,48.2,85.9,29.75,15.22,0,63.88
338.578125,19.25,19,48.2,85.9,29.75,15.22,0,63.88
338.5859375,22.15,19.2,48.2,85.9,29.75,15.22,0,63.88
338.59375,24.7,18.15,48.2,85.9,29.75,15.22,0,63.88
338.6015625,28.1,20,48.2,85.9,29.75,15.22,0,63.88
338.609375,27.8,20.1,48.2,85.9,29.75,15.22,0,63.88
338.6171875,29.45,22.85,48.2,85.9,29.75,15.22,0,63.88
338.625,27.45,22.85,48.2,85.9,29.75,15.22,0,63.88
338.6328125,26.9,23.6,48.2,85.9,29.75,15.22,0,63.88
338.640625,28.9,23.4,48.2,85.9,29.75,15.22,0,63.88
338.6484375,31.9,23.3,48.2,85.9,29.75,15.22,0,63.88
338.65625,33.9,22.5,48.2,85.9,29.75,15.22,0,63.88
338.6640625,35.6,23.35,48.2,85.9,29.75,15.22,0,63.88
338.671875,37.7,25.95,48.2,85.9,29.75,15.22,0,63.88
338.6796875,34.65,27.1,48.2,85.9,29.75,15.22,0,63.88
338.6875,35.95,29.65,48.2,85.9,29.75,15.22,0,63.88
338.6953125,37.95,30.4,48.2,85.9,29.75,15.22,0,63.88
338.703125,40.65,31.05,48.2,85.9,29.75,15.22,0,63.88
338.7109375,34.7,25.8,48.2,85.9,29.75,15.22,0,63.88
338.71875,29.3,21.95,48.2,85.9,29.75,15.22,0,63.88
338.7265625,21.9,17.8,48.2,85.9,29.75,15.22,0,63.88
338.734375,20.3,17.7,48.2,85.9,29.75,15.22,0,63.88
338.7421875,19.1,16.15,48.2,85.9,29.75,15.22,0,63.88
338.75,24.4,19,48.2,85.9,29.75,15.22,0,63.88
338.7578125,30,20.95,48.2,85.9,29.75,15.22,0,63.88
338.765625,35.6,23.9,48.2,85.9,29.75,15.22,0,63.88
338.7734375,36.35,23.2,48.2,85.9,29.75,15.22,0,63.88
338.78125,34,21.6,48.2,85.9,29.75,15.22,0,63.88
338.7890625,31.05,20.7,48.2,85.9,29.75,15.22,0,63.88
338.796875,27.5,20.3,48.2,85.9,29.75,15.22,0,63.88
338.8046875,25,19.65,48.2,85.9,29.75,15.22,0,63.88
338.8125,22.85,18.6,48.2,85.9,29.75,15.22,0,63.88
338.8203125,25.7,20.35,48.2,85.9,29.75,15.22,0,63.88
338.828125,25.9,20.5,48.2,85.9,29.75,15.22,0,63.88
338.8359375,27.65,22.7,48.2,85.9,29.75,15.22,0,63.88
338.84375,27.3,22.65,48.2,85.9,29.75,15.22,0,63.88
338.8515625,29.7,25.05,48.2,85.9,29.75,15.22,0,63.88
338.859375,29.6,25.2,48.2,85.9,29.75,15.22,0,63.88
338.8671875,33.35,28.25,48.2,85.9,29.75,15.22,0,63.88
338.875,35.7,29.45,48.2,85.9,29.75,15.22,0,63.88
338.8828125,38.45,30.5,48.2,85.9,29.75,15.22,0,63.88
338.890625,38.55,29.1,48.2,85.9,29.75,15.22,0,63.88
338.8984375,39.4,29.1,48.2,85.9,29.75,15.22,0,63.88
338.90625,40.65,28.6,48.2,85.9,29.75,15.22,0,63.88
338.9140625,39.6,27.15,48.2,85.9,29.75,15.22,0,63.88
338.921875,40.15,26.45,48.2,85.9,29.75,15.22,0,63.88
338.9296875,39.9,25.25,48.2,85.9,29.75,15.22,0,63.88
338.9375,39.55,26.25,48.2,85.9,29.75,15.22,0,63.88
338.9453125,36.95,26.85,48.2,85.9,29.75,15.22,0,63.88
338.953125,38.8,29.3,48.2,85.9,29.75,15.22,0,63.88
338.9609375,34.65,27.55,48.2,85.9,29.75,15.22,0,63.88
338.96875,29.3,25.1,48.2,85.9,29.75,15.22,0,63.88
338.9765625,19.95,17.95,48.2,85.9,29.75,15.22,0,63.88
338.984375,16.2,16.2,48.2,85.9,29.75,15.22,0,63.88
338.9921875,16.6,17.45,48.2,85.9,29.75,15.22,0,63.88
339,22.65,21.6,48.2,85.9,29.75,15.22,0,63.88
339.0078125,25.25,21.4,48.2,85.9,29.75,15.22,0,63.88
339.015625,27.7,22.15,48.2,85.9,29.75,15.22,0,63.88
339.0234375,28.15,22,48.2,85.9,29.75,15.22,0,63.88
339.03125,27.45,21.35,48.2,85.9,29.75,15.22,0,63.88
339.0390625,27.25,20.9,48.2,85.9,29.75,15.22,0,63.88
339.046875,24.65,19.9,48.2,85.9,29.75,15.22,0,63.88
339.0546875,19.75,18.8,48.2,85.9,29.75,15.22,0,63.88
339.0625,11.2,16.85,48.2,85.9,29.75,15.22,0,63.88
339.0703125,8,18.35,48.2,85.9,29.75,15.22,0,63.88
339.078125,8.3,19.55,48.2,85.9,29.75,15.22,0,63.88
339.0859375,17.35,25,48.2,85.9,29.75,15.22,0,63.88
339.09375,23.5,27.85,48.2,85.9,29.75,15.22,0,63.88
339.1015625,29.9,31.65,48.2,85.9,29.75,15.22,0,63.88
339.109375,31.2,33.35,48.2,85.9,29.75,15.22,0,63.88
339.1171875,32.1,37.6,48.2,85.9,29.75,15.22,0,63.88
339.125,25.75,36.3,48.2,85.9,29.75,15.22,0,63.88
339.1328125,18,33.6,48.2,85.9,29.75,15.22,0,63.88
339.140625,9.65,29.15,48.2,85.9,29.75,15.22,0,63.88
339.1484375,7.2,27.4,48.2,85.9,29.75,15.22,0,63.88
339.15625,9.55,27.6,47.7,87.2,29.61,15.25,0,63.77
339.1640625,10.9,28.35,47.7,87.2,29.61,15.25,0,63.77
339.171875,12.25,28.9,47.7,87.2,29.61,15.25,0,63.77
339.1796875,12.85,28.45,47.7,87.2,29.61,15.25,0,63.77
339.1875,12.5,28.7,47.7,87.2,29.61,15.25,0,63.77
339.1953125,4.15,24.85,47.7,87.2,29.61,15.25,0,63.77
339.203125,-0.6,22.8,47.7,87.2,29.61,15.25,0,63.77
339.2109375,-3.8,20.5,47.7,87.2,29.61,15.25,0,63.77
339.21875,-0.3,22.05,47.7,87.2,29.61,15.25,0,63.77
339.2265625,5.25,23.65,47.7,87.2,29.61,15.25,0,63.77
339.234375,15.75,29.45,47.7,87.2,29.61,15.25,0,63.77
339.2421875,19.1,30.2,47.7,87.2,29.61,15.25,0,63.77
339.25,20.7,30.25,47.7,87.2,29.61,15.25,0,63.77
339.2578125,17.95,28.9,47.7,87.2,29.61,15.25,0,63.77
339.265625,14.6,28.75,47.7,87.2,29.61,15.25,0,63.77
339.2734375,13.65,27.65,47.7,87.2,29.61,15.25,0,63.77
339.28125,15.75,28.3,47.7,87.2,29.61,15.25,0,63.77
339.2890625,16.9,28.25,47.7,87.2,29.61,15.25,0,63.77
339.296875,17.05,29,47.7,87.2,29.61,15.25,0,63.77
339.3046875,16.85,30.35,47.7,87.2,29.61,15.25,0,63.77
339.3125,12.45,27.7,47.7,87.2,29.61,15.25,0,63.77
339.3203125,13.2,27.25,47.7,87.2,29.61,15.25,0,63.77
339.328125,14.95,27.4,47.7,87.2,29.61,15.25,0,63.77
339.3359375,20.5,30.1,47.7,87.2,29.61,15.25,0,63.77
339.34375,23.95,31.6,47.7,87.2,29.61,15.25,0,63.77
339.3515625,29.2,35.5,47.7,87.2,29.61,15.25,0,63.77
339.359375,29.75,35.6,47.7,87.2,29.61,15.25,0,63.77
339.3671875,32.5,38.3,47.7,87.2,29.61,15.25,0,63.77
339.375,31.95,37.9,47.7,87.2,29.61,15.25,0,63.77
339.3828125,30.95,37.3,47.7,87.2,29.61,15.25,0,63.77
339.390625,28.3,35.3,47.7,87.2,29.61,15.25,0,63.77
339.3984375,27.9,33.65,47.7,87.2,29.61,15.25,0,63.77
339.40625,29.75,31.15,47.7,87.2,29.61,15.25,0,63.77
339.4140625,31.85,31.4,47.7,87.2,29.61,15.25,0,63.77
339.421875,34.75,33.65,47.7,87.2,29.61,15.25,0,63.77
339.4296875,34,34.15,47.7,87.2,29.61,15.25,0,63.77
339.4375,33.25,34.7,47.7,87.2,29.61,15.25,0,63.77
339.4453125,29.05,33.05,47.7,87.2,29.61,15.25,0,63.77
339.453125,27.55,33.5,47.7,87.2,29.61,15.25,0,63.77
339.4609375,25.7,33.35,47.7,87.2,29.61,15.25,0,63.77
339.46875,31.35,37.4,47.7,87.2,29.61,15.25,0,63.77
339.4765625,34.95,39.35,47.7,87.2,29.61,15.25,0,63.77
339.484375,37.4,40.65,47.7,87.2,29.61,15.25,0,63.77
339.4921875,34,37.05,47.7,87.2,29.61,15.25,0,63.77
339.5,32.65,36.05,47.7,87.2,29.61,15.25,0,63.77
339.5078125,30.95,34.4,47.7,87.2,29.61,15.25,0,63.77
339.515625,33.85,37,47.7,87.2,29.61,15.25,0,63.77
339.5234375,39.5,41.25,47.7,87.2,29.61,15.25,0,63.77
339.53125,45.05,45.55,47.7,87.2,29.61,15.25,0,63.77
339.5390625,48.9,49.15,47.7,87.2,29.61,15.25,0,63.77
339.546875,50.35,51.5,47.7,87.2,29.61,15.25,0,63.77
339.5546875,52.5,52.25,47.7,87.2,29.61,15.25,0,63.77
339.5625,49.65,50.1,47.7,87.2,29.61,15.25,0,63.77
339.5703125,47.2,47.45,47.7,87.2,29.61,15.25,0,63.77
339.578125,42.5,40.85,47.7,87.2,29.61,15.25,0,63.77
339.5859375,41.25,37.25,47.7,87.2,29.61,15.25,0,63.77
339.59375,35.4,32.85,47.7,87.2,29.61,15.25,0,63.77
339.6015625,33.4,32.15,47.7,87.2,29.61,15.25,0,63.77
339.609375,32.85,32.55,47.7,87.2,29.61,15.25,0,63.77
339.6171875,36,35.85,47.7,87.2,29.61,15.25,0,63.77
339.625,35.5,36.15,47.7,87.2,29.61,15.25,0,63.77
339.6328125,38.25,40,47.7,87.2,29.61,15.25,0,63.77
339.640625,40.3,42.45,47.7,87.2,29.61,15.25,0,63.77
339.6484375,42.55,44.75,47.7,87.2,29.61,15.25,0,63.77
339.65625,44.95,46.05,47.7,87.2,29.61,15.25,0,63.77
339.6640625,46.05,45.8,47.7,87.2,29.61,15.25,0,63.77
339.671875,47.05,45.25,47.7,87.2,29.61,15.25,0,63.77
339.6796875,50.9,46.15,47.7,87.2,29.61,15.25,0,63.77
339.6875,56.65,47.4,47.7,87.2,29.61,15.25,0,63.77
339.6953125,54.6,45.05,47.7,87.2,29.61,15.25,0,63.77
339.703125,55.2,46.05,47.7,87.2,29.61,15.25,0,63.77
339.7109375,57.35,46.95,47.7,87.2,29.61,15.25,0,63.77
339.71875,62.25,50.2,47.7,87.2,29.61,15.25,0,63.77
339.7265625,63.6,50.9,47.7,87.2,29.61,15.25,0,63.77
339.734375,68.2,54.75,47.7,87.2,29.61,15.25,0,63.77
339.7421875,71.85,57.7,47.7,87.2,29.61,15.25,0,63.77
339.75,78.4,61.8,47.7,87.2,29.61,15.25,0,63.77
339.7578125,77.7,60.2,47.7,87.2,29.61,15.25,0,63.77
339.765625,70.15,55.5,47.7,87.2,29.61,15.25,0,63.77
339.7734375,62.55,48.95,47.7,87.2,29.61,15.25,0,63.77
339.78125,60.4,46.15,47.7,87.2,29.61,15.25,0,63.77
339.7890625,60.55,46.4,47.7,87.2,29.61,15.25,0,63.77
339.796875,59.15,47.65,47.7,87.2,29.61,15.25,0,63.77
339.8046875,59.45,50.2,47.7,87.2,29.61,15.25,0,63.77
339.8125,56.45,49.6,47.7,87.2,29.61,15.25,0,63.77
339.8203125,56.15,48.8,47.7,87.2,29.61,15.25,0,63.77
339.828125,52.15,45.7,47.7,87.2,29.61,15.25,0,63.77
339.8359375,49.75,43.45,47.7,87.2,29.61,15.25,0,63.77
339.84375,46.55,39.85,47.7,87.2,29.61,15.25,0,63.77
339.8515625,48.05,40.95,47.7,87.2,29.61,15.25,0,63.77
339.859375,44.6,37.6,47.7,87.2,29.61,15.25,0,63.77
339.8671875,46.2,36.45,47.7,87.2,29.61,15.25,0,63.77
339.875,48.3,37.4,47.7,87.2,29.61,15.25,0,63.77
339.8828125,49.45,38.95,47.7,87.2,29.61,15.25,0,63.77
339.890625,45.7,36.1,47.7,87.2,29.61,15.25,0,63.77
339.8984375,43.2,35.05,47.7,87.2,29.61,15.25,0,63.77
339.90625,40.2,32.7,47.7,87.2,29.61,15.25,0,63.77
339.9140625,36.45,30,47.7,87.2,29.61,15.25,0,63.77
339.921875,32.2,28.2,47.7,87.2,29.61,15.25,0,63.77
339.9296875,27.7,26.05,47.7,87.2,29.61,15.25,0,63.77
339.9375,27.35,25.1,47.7,87.2,29.61,15.25,0,63.77
339.9453125,23.3,22.4,47.7,87.2,29.61,15.25,0,63.77
339.953125,21.35,22.05,47.7,87.2,29.61,15.25,0,63.77
339.9609375,19.4,20.55,47.7,87.2,29.61,15.25,0,63.77
339.96875,20.95,19.75,47.7,87.2,29.61,15.25,0,63.77
339.9765625,19.9,15.8,47.7,87.2,29.61,15.25,0,63.77
339.984375,22.1,15.8,47.7,87.2,29.61,15.25,0,63.77
339.9921875,16.95,11.8,47.7,87.2,29.61,15.25,0,63.77
340,8.1,7.9,47.7,87.2,29.61,15.25,0,63.77
340.0078125,-2.55,4.2,47.7,87.2,29.61,15.25,0,63.77
340.015625,-7.95,4.15,47.7,87.2,29.61,15.25,0,63.77
340.0234375,-10.1,4.15,47.7,87.2,29.61,15.25,0,63.77
340.03125,-8.55,5.95,47.7,87.2,29.61,15.25,0,63.77
340.0390625,-3.4,8.1,47.7,87.2,29.61,15.25,0,63.77
340.046875,0.2,8.15,47.7,87.2,29.61,15.25,0,63.77
340.0546875,1.5,5.35,47.7,87.2,29.61,15.25,0,63.77
340.0625,-0.85,1.6,47.7,87.2,29.61,15.25,0,63.77
340.0703125,-4.2,0.45,47.7,87.2,29.61,15.25,0,63.77
340.078125,-13.3,-2.85,47.7,87.2,29.61,15.25,0,63.77
340.0859375,-13.5,-0.55,47.7,87.2,29.61,15.25,0,63.77
340.09375,-11.65,1.7,47.7,87.2,29.61,15.25,0,63.77
340.1015625,-11.25,1.85,47.7,87.2,29.61,15.25,0,63.77
340.109375,-14.8,-0.95,47.7,87.2,29.61,15.25,0,63.77
340.1171875,-10.75,2.35,47.7,87.2,29.61,15.25,0,63.77
340.125,-5.9,4.6,47.7,87.2,29.61,15.25,0,63.77
340.1328125,0.25,8.3,47.7,87.2,29.61,15.25,0,63.77
340.140625,1.15,8.95,47.7,87.2,29.61,15.25,0,63.77
340.1484375,-1.45,7.8,47.7,87.2,29.61,15.25,0,63.77
340.15625,-2.7,6.8,48,88.5,29.21,15.25,0,63.73
340.1640625,0.25,8.65,48,88.5,29.21,15.25,0,63.73
340.171875,6.65,11.8,48,88.5,29.21,15.25,0,63.73
340.1796875,10.7,15.05,48,88.5,29.21,15.25,0,63.73
340.1875,15.3,17.65,48,88.5,29.21,15.25,0,63.73
340.1953125,17.4,16.7,48,88.5,29.21,15.25,0,63.73
340.203125,17.9,16.65,48,88.5,29.21,15.25,0,63.73
340.2109375,13.5,15.85,48,88.5,29.21,15.25,0,63.73
340.21875,13.7,18.05,48,88.5,29.21,15.25,0,63.73
340.2265625,10.65,16.55,48,88.5,29.21,15.25,0,63.73
340.234375,12.1,17.75,48,88.5,29.21,15.25,0,63.73
340.2421875,11,17.05,48,88.5,29.21,15.25,0,63.73
340.25,7.6,16.65,48,88.5,29.21,15.25,0,63.73
340.2578125,2.3,13.15,48,88.5,29.21,15.25,0,63.73
340.265625,3.2,11.1,48,88.5,29.21,15.25,0,63.73
340.2734375,7.85,10.3,48,88.5,29.21,15.25,0,63.73
340.28125,17.75,14.95,48,88.5,29.21,15.25,0,63.73
340.2890625,24.5,18.95,48,88.5,29.21,15.25,0,63.73
340.296875,21.5,18.55,48,88.5,29.21,15.25,0,63.73
340.3046875,19.2,18.85,48,88.5,29.21,15.25,0,63.73
340.3125,17.95,18.55,48,88.5,29.21,15.25,0,63.73
340.3203125,17.65,17.65,48,88.5,29.21,15.25,0,63.73
340.328125,14.55,14.95,48,88.5,29.21,15.25,0,63.73
340.3359375,15.85,17.55,48,88.5,29.21,15.25,0,63.73
340.34375,18.1,19.65,48,88.5,29.21,15.25,0,63.73
340.3515625,28.55,24.7,48,88.5,29.21,15.25,0,63.73
340.359375,35.3,25.7,48,88.5,29.21,15.25,0,63.73
340.3671875,39,26.7,48,88.5,29.21,15.25,0,63.73
340.375,36.6,24.65,48,88.5,29.21,15.25,0,63.73
340.3828125,36.95,26.3,48,88.5,29.21,15.25,0,63.73
340.390625,36,26.4,48,88.5,29.21,15.25,0,63.73
340.3984375,35.15,26.85,48,88.5,29.21,15.25,0,63.73
340.40625,31.85,25.65,48,88.5,29.21,15.25,0,63.73
340.4140625,25.45,24,48,88.5,29.21,15.25,0,63.73
340.421875,18.6,22.95,48,88.5,29.21,15.25,0,63.73
340.4296875,14.9,23.85,48,88.5,29.21,15.25,0,63.73
340.4375,15.6,25.35,48,88.5,29.21,15.25,0,63.73
340.4453125,14,23.6,48,88.5,29.21,15.25,0,63.73
340.453125,18.2,24,48,88.5,29.21,15.25,0,63.73
340.4609375,22.15,22.75,48,88.5,29.21,15.25,0,63.73
340.46875,28.75,24.95,48,88.5,29.21,15.25,0,63.73
340.4765625,30.15,26,48,88.5,29.21,15.25,0,63.73
340.484375,31.15,27.5,48,88.5,29.21,15.25,0,63.73
340.4921875,26.55,24.95,48,88.5,29.21,15.25,0,63.73
340.5,23.6,23.85,48,88.5,29.21,15.25,0,63.73
340.5078125,20.5,20.6,48,88.5,29.21,15.25,0,63.73
340.515625,21,20.05,48,88.5,29.21,15.25,0,63.73
340.5234375,20.15,18.7,48,88.5,29.21,15.25,0,63.73
340.53125,18.2,17.05,48,88.5,29.21,15.25,0,63.73
340.5390625,16.85,16.2,48,88.5,29.21,15.25,0,63.73
340.546875,16,16.35,48,88.5,29.21,15.25,0,63.73
340.5546875,15.85,15.3,48,88.5,29.21,15.25,0,63.73
340.5625,12.7,10.6,48,88.5,29.21,15.25,0,63.73
340.5703125,15.15,9.1,48,88.5,29.21,15.25,0,63.73
340.578125,21.7,11.15,48,88.5,29.21,15.25,0,63.73
340.5859375,32.65,17.75,48,88.5,29.21,15.25,0,63.73
340.59375,34.05,18.3,48,88.5,29.21,15.25,0,63.73
340.6015625,32.55,17.65,48,88.5,29.21,15.25,0,63.73
340.609375,25.5,13.1,48,88.5,29.21,15.25,0,63.73
340.6171875,18.55,9.65,48,88.5,29.21,15.25,0,63.73
340.625,10.2,5.45,48,88.5,29.21,15.25,0,63.73
340.6328125,10.65,6.6,48,88.5,29.21,15.25,0,63.73
340.640625,14.35,7.25,48,88.5,29.21,15.25,0,63.73
340.6484375,22.15,11.3,48,88.5,29.21,15.25,0,63.73
340.65625,31.8,16.1,48,88.5,29.21,15.25,0,63.73
340.6640625,38.85,19.3,48,88.5,29.21,15.25,0,63.73
340.671875,43.25,22.05,48,88.5,29.21,15.25,0,63.73
340.6796875,44.8,24.55,48,88.5,29.21,15.25,0,63.73
340.6875,44.6,25.15,48,88.5,29.21,15.25,0,63.73
340.6953125,38,22.1,48,88.5,29.21,15.25,0,63.73
340.703125,35.2,21.75,48,88.5,29.21,15.25,0,63.73
340.7109375,32,19.95,48,88.5,29.21,15.25,0,63.73
340.71875,34.95,21.65,48,88.5,29.21,15.25,0,63.73
340.7265625,39.6,23.55,48,88.5,29.21,15.25,0,63.73
340.734375,51.1,29.3,48,88.5,29.21,15.25,0,63.73
340.7421875,56.8,31.8,48,88.5,29.21,15.25,0,63.73
340.75,56.3,33.2,48,88.5,29.21,15.25,0,63.73
340.7578125,49,30.95,48,88.5,29.21,15.25,0,63.73
340.765625,43.5,30.6,48,88.5,29.21,15.25,0,63.73
340.7734375,39.7,30.2,48,88.5,29.21,15.25,0,63.73
340.78125,37.45,30.2,48,88.5,29.21,15.25,0,63.73
340.7890625,35.35,29.25,48,88.5,29.21,15.25,0,63.73
340.796875,33.45,28,48,88.5,29.21,15.25,0,63.73
340.8046875,34.15,28.1,48,88.5,29.21,15.25,0,63.73
340.8125,29.8,26.95,48,88.5,29.21,15.25,0,63.73
340.8203125,26.85,27.2,48,88.5,29.21,15.25,0,63.73
340.828125,22.3,25.3,48,88.5,29.21,15.25,0,63.73
340.8359375,23.05,26.3,48,88.5,29.21,15.25,0,63.73
340.84375,24.8,27.15,48,88.5,29.21,15.25,0,63.73
340.8515625,29.85,30.05,48,88.5,29.21,15.25,0,63.73
340.859375,30.65,29.7,48,88.5,29.21,15.25,0,63.73
340.8671875,34.8,32.25,48,88.5,29.21,15.25,0,63.73
340.875,34.6,32.05,48,88.5,29.21,15.25,0,63.73
340.8828125,34.8,32.8,48,88.5,29.21,15.25,0,63.73
340.890625,34.55,31.4,48,88.5,29.21,15.25,0,63.73
340.8984375,33.9,30.25,48,88.5,29.21,15.25,0,63.73
340.90625,32.5,28.45,48,88.5,29.21,15.25,0,63.73
340.9140625,31.95,28.8,48,88.5,29.21,15.25,0,63.73
340.921875,30.75,29.2,48,88.5,29.21,15.25,0,63.73
340.9296875,30.2,29.95,48,88.5,29.21,15.25,0,63.73
340.9375,33.5,32.5,48,88.5,29.21,15.25,0,63.73
340.9453125,33.55,33.05,48,88.5,29.21,15.25,0,63.73
340.953125,35.85,34.2,48,88.5,29.21,15.25,0,63.73
340.9609375,34.65,32.25,48,88.5,29.21,15.25,0,63.73
340.96875,35.45,31.95,48,88.5,29.21,15.25,0,63.73
340.9765625,33.85,31.1,48,88.5,29.21,15.25,0,63.73
340.984375,32.4,32.65,48,88.5,29.21,15.25,0,63.73
340.9921875,27.95,32.1,48,88.5,29.21,15.25,0,63.73
341,30.45,35.4,48,88.5,29.21,15.25,0,63.73
341.0078125,31.95,35.45,48,88.5,29.21,15.25,0,63.73
341.015625,33.25,32.95,48,88.5,29.21,15.25,0,63.73
341.0234375,34.85,30.75,48,88.5,29.21,15.25,0,63.73
341.03125,33.5,30.6,48,88.5,29.21,15.25,0,63.73
341.0390625,28.4,29.85,48,88.5,29.21,15.25,0,63.73
341.046875,25.8,29.75,48,88.5,29.21,15.25,0,63.73
341.0546875,26.25,30.1,48,88.5,29.21,15.25,0,63.73
341.0625,24.9,29.05,48,88.5,29.21,15.25,0,63.73
341.0703125,28.1,29.55,48,88.5,29.21,15.25,0,63.73
341.078125,27.65,27.8,48,88.5,29.21,15.25,0,63.73
341.0859375,26,28.15,48,88.5,29.21,15.25,0,63.73
341.09375,23.7,28.25,48,88.5,29.21,15.25,0,63.73
341.1015625,26.55,31.55,48,88.5,29.21,15.25,0,63.73
341.109375,25.8,30.35,48,88.5,29.21,15.25,0,63.73
341.1171875,28.9,30.15,48,88.5,29.21,15.25,0,63.73
341.125,30.8,29.05,48,88.5,29.21,15.25,0,63.73
341.1328125,30.1,29.05,48,88.5,29.21,15.25,0,63.73
341.140625,26.95,26.6,48,88.5,29.21,15.25,0,63.73
341.1484375,32.05,29.4,48,88.5,29.21,15.25,0,63.73
341.15625,37.1,33.45,49.1,89.7,28.8,15.13,0,63.69
341.1640625,36.4,35.05,49.1,89.7,28.8,15.13,0,63.69
341.171875,34.5,35.15,49.1,89.7,28.8,15.13,0,63.69
341.1796875,30.1,34.35,49.1,89.7,28.8,15.13,0,63.69
341.1875,29.2,35.2,49.1,89.7,28.8,15.13,0,63.69
341.1953125,31.05,36.15,49.1,89.7,28.8,15.13,0,63.69
341.203125,34.45,36.35,49.1,89.7,28.8,15.13,0,63.69
341.2109375,32.3,31.8,49.1,89.7,28.8,15.13,0,63.69
341.21875,33.7,30.3,49.1,89.7,28.8,15.13,0,63.69
341.2265625,31.6,27.45,49.1,89.7,28.8,15.13,0,63.69
341.234375,34.4,30.4,49.1,89.7,28.8,15.13,0,63.69
341.2421875,36.35,34,49.1,89.7,28.8,15.13,0,63.69
341.25,41.5,38.7,49.1,89.7,28.8,15.13,0,63.69
341.2578125,46.15,40.25,49.1,89.7,28.8,15.13,0,63.69
341.265625,49.9,41.9,49.1,89.7,28.8,15.13,0,63.69
341.2734375,44.85,38.45,49.1,89.7,28.8,15.13,0,63.69
341.28125,41.2,36.6,49.1,89.7,28.8,15.13,0,63.69
341.2890625,41.05,36.45,49.1,89.7,28.8,15.13,0,63.69
341.296875,39.6,35.8,49.1,89.7,28.8,15.13,0,63.69
341.3046875,41.45,37.4,49.1,89.7,28.8,15.13,0,63.69
341.3125,46.5,40.2,49.1,89.7,28.8,15.13,0,63.69
341.3203125,50.95,40.85,49.1,89.7,28.8,15.13,0,63.69
341.328125,47.5,36.45,49.1,89.7,28.8,15.13,0,63.69
341.3359375,44.8,33.4,49.1,89.7,28.8,15.13,0,63.69
341.34375,38.65,28.2,49.1,89.7,28.8,15.13,0,63.69
341.3515625,38.7,27.3,49.1,89.7,28.8,15.13,0,63.69
341.359375,41.15,28,49.1,89.7,28.8,15.13,0,63.69
341.3671875,47.9,34.25,49.1,89.7,28.8,15.13,0,63.69
341.375,53.85,40.55,49.1,89.7,28.8,15.13,0,63.69
341.3828125,62,47.45,49.1,89.7,28.8,15.13,0,63.69
341.390625,62.65,48.05,49.1,89.7,28.8,15.13,0,63.69
341.3984375,58.6,46.3,49.1,89.7,28.8,15.13,0,63.69
341.40625,52.7,43,49.1,89.7,28.8,15.13,0,63.69
341.4140625,48.05,39.95,49.1,89.7,28.8,15.13,0,63.69
341.421875,50.45,39.75,49.1,89.7,28.8,15.13,0,63.69
341.4296875,58.3,43.25,49.1,89.7,28.8,15.13,0,63.69
341.4375,67.2,47.95,49.1,89.7,28.8,15.13,0,63.69
341.4453125,69.95,50.45,49.1,89.7,28.8,15.13,0,63.69
341.453125,73.8,55.6,49.1,89.7,28.8,15.13,0,63.69
341.4609375,71.1,55.9,49.1,89.7,28.8,15.13,0,63.69
341.46875,67,53.85,49.1,89.7,28.8,15.13,0,63.69
341.4765625,65,51.4,49.1,89.7,28.8,15.13,0,63.69
341.484375,73.15,55.45,49.1,89.7,28.8,15.13,0,63.69
341.4921875,74.15,56.6,49.1,89.7,28.8,15.13,0,63.69
341.5,69.9,56.3,49.1,89.7,28.8,15.13,0,63.69
341.5078125,61.7,51.1,49.1,89.7,28.8,15.13,0,63.69
341.515625,54.45,45.65,49.1,89.7,28.8,15.13,0,63.69
341.5234375,49.55,39.55,49.1,89.7,28.8,15.13,0,63.69
341.53125,53.35,39.35,49.1,89.7,28.8,15.13,0,63.69
341.5390625,60.25,42.2,49.1,89.7,28.8,15.13,0,63.69
341.546875,65.05,44.85,49.1,89.7,28.8,15.13,0,63.69
341.5546875,68.7,48,49.1,89.7,28.8,15.13,0,63.69
341.5625,68.2,49.65,49.1,89.7,28.8,15.13,0,63.69
341.5703125,71.55,52.35,49.1,89.7,28.8,15.13,0,63.69
341.578125,73.95,53.85,49.1,89.7,28.8,15.13,0,63.69
341.5859375,77.55,56.3,49.1,89.7,28.8,15.13,0,63.69
341.59375,74.5,54.3,49.1,89.7,28.8,15.13,0,63.69
341.6015625,70.8,53.9,49.1,89.7,28.8,15.13,0,63.69
341.609375,64.45,51.9,49.1,89.7,28.8,15.13,0,63.69
341.6171875,63.3,51.9,49.1,89.7,28.8,15.13,0,63.69
341.625,60,48.45,49.1,89.7,28.8,15.13,0,63.69
341.6328125,61.7,47.9,49.1,89.7,28.8,15.13,0,63.69
341.640625,65.25,48.6,49.1,89.7,28.8,15.13,0,63.69
341.6484375,70.15,52.55,49.1,89.7,28.8,15.13,0,63.69
341.65625,73.75,55.65,49.1,89.7,28.8,15.13,0,63.69
341.6640625,75.3,58.05,49.1,89.7,28.8,15.13,0,63.69
341.671875,71.5,56.95,49.1,89.7,28.8,15.13,0,63.69
341.6796875,64.25,53.35,49.1,89.7,28.8,15.13,0,63.69
341.6875,62.05,52.7,49.1,89.7,28.8,15.13,0,63.69
341.6953125,60,51.05,49.1,89.7,28.8,15.13,0,63.69
341.703125,60.9,49.7,49.1,89.7,28.8,15.13,0,63.69
341.7109375,60,47.4,49.1,89.7,28.8,15.13,0,63.69
341.71875,64.45,48.85,49.1,89.7,28.8,15.13,0,63.69
341.7265625,65.5,46.95,49.1,89.7,28.8,15.13,0,63.69
341.734375,68.7,48.15,49.1,89.7,28.8,15.13,0,63.69
341.7421875,70.35,49.85,49.1,89.7,28.8,15.13,0,63.69
341.75,74.85,54.45,49.1,89.7,28.8,15.13,0,63.69
341.7578125,72.7,54.75,49.1,89.7,28.8,15.13,0,63.69
341.765625,69.25,56.5,49.1,89.7,28.8,15.13,0,63.69
341.7734375,66.6,57.6,49.1,89.7,28.8,15.13,0,63.69
341.78125,68.7,60.3,49.1,89.7,28.8,15.13,0,63.69
341.7890625,68.55,61.15,49.1,89.7,28.8,15.13,0,63.69
341.796875,66.6,59.8,49.1,89.7,28.8,15.13,0,63.69
341.8046875,68.45,56.55,49.1,89.7,28.8,15.13,0,63.69
341.8125,66.1,52.6,49.1,89.7,28.8,15.13,0,63.69
341.8203125,63.05,51.75,49.1,89.7,28.8,15.13,0,63.69
341.828125,60.6,50.9,49.1,89.7,28.8,15.13,0,63.69
341.8359375,60.55,50.95,49.1,89.7,28.8,15.13,0,63.69
341.84375,55.6,47.7,49.1,89.7,28.8,15.13,0,63.69
341.8515625,59.1,49.9,49.1,89.7,28.8,15.13,0,63.69
341.859375,65.4,53.35,49.1,89.7,28.8,15.13,0,63.69
341.8671875,74,57.5,49.1,89.7,28.8,15.13,0,63.69
341.875,77.9,57.45,49.1,89.7,28.8,15.13,0,63.69
341.8828125,79.05,57.75,49.1,89.7,28.8,15.13,0,63.69
341.890625,73.85,54.65,49.1,89.7,28.8,15.13,0,63.69
341.8984375,69.95,53.6,49.1,89.7,28.8,15.13,0,63.69
341.90625,69.05,55.2,49.1,89.7,28.8,15.13,0,63.69
341.9140625,70.25,58.15,49.1,89.7,28.8,15.13,0,63.69
341.921875,74,61.2,49.1,89.7,28.8,15.13,0,63.69
341.9296875,74.3,62.7,49.1,89.7,28.8,15.13,0,63.69
341.9375,72.8,63.05,49.1,89.7,28.8,15.13,0,63.69
341.9453125,67.95,60.1,49.1,89.7,28.8,15.13,0,63.69
341.953125,65.85,59.4,49.1,89.7,28.8,15.13,0,63.69
341.9609375,60.65,58.3,49.1,89.7,28.8,15.13,0,63.69
341.96875,61,61.05,49.1,89.7,28.8,15.13,0,63.69
341.9765625,59,60.5,49.1,89.7,28.8,15.13,0,63.69
341.984375,59.7,61.15,49.1,89.7,28.8,15.13,0,63.69
341.9921875,55.2,57.55,49.1,89.7,28.8,15.13,0,63.69
342,50.65,54.6,49.1,89.7,28.8,15.13,0,63.69
342.0078125,45.65,50.8,49.1,89.7,28.8,15.13,0,63.69
342.015625,44.25,50.4,49.1,89.7,28.8,15.13,0,63.69
342.0234375,40.25,48.35,49.1,89.7,28.8,15.13,0,63.69
342.03125,36.65,47.2,49.1,89.7,28.8,15.13,0,63.69
342.0390625,32.45,44,49.1,89.7,28.8,15.13,0,63.69
342.046875,26.4,38.95,49.1,89.7,28.8,15.13,0,63.69
342.0546875,22.85,34.2,49.1,89.7,28.8,15.13,0,63.69
342.0625,18.55,29.4,49.1,89.7,28.8,15.13,0,63.69
342.0703125,16.45,26.9,49.1,89.7,28.8,15.13,0,63.69
342.078125,11.4,24.45,49.1,89.7,28.8,15.13,0,63.69
342.0859375,7.2,24.15,49.1,89.7,28.8,15.13,0,63.69
342.09375,5.75,24,49.1,89.7,28.8,15.13,0,63.69
342.1015625,13.2,29.15,49.1,89.7,28.8,15.13,0,63.69
342.109375,16.75,30.95,49.1,89.7,28.8,15.13,0,63.69
342.1171875,19.4,31.1,49.1,89.7,28.8,15.13,0,63.69
342.125,16.2,28.2,49.1,89.7,28.8,15.13,0,63.69
342.1328125,11.65,26.8,49.1,89.7,28.8,15.13,0,63.69
342.140625,7.3,23.55,49.1,89.7,28.8,15.13,0,63.69
342.1484375,4.9,21.4,49.1,89.7,28.8,15.13,0,63.69
342.15625,3.05,19.8,49.7,91,28.83,15.25,0,63.49
342.1640625,6.25,21.3,49.7,91,28.83,15.25,0,63.49
342.171875,12.9,24.65,49.7,91,28.83,15.25,0,63.49
342.1796875,15,25.55,49.7,91,28.83,15.25,0,63.49
342.1875,13.45,24.85,49.7,91,28.83,15.25,0,63.49
342.1953125,3.7,20.7,49.7,91,28.83,15.25,0,63.49
342.203125,-3.35,18.6,49.7,91,28.83,15.25,0,63.49
342.2109375,-7.8,17,49.7,91,28.83,15.25,0,63.49
342.21875,-1.35,21.15,49.7,91,28.83,15.25,0,63.49
342.2265625,5,22.8,49.7,91,28.83,15.25,0,63.49
342.234375,8.05,22.95,49.7,91,28.83,15.25,0,63.49
342.2421875,3,17.25,49.7,91,28.83,15.25,0,63.49
342.25,5.6,16.25,49.7,91,28.83,15.25,0,63.49
342.2578125,9.1,17.2,49.7,91,28.83,15.25,0,63.49
342.265625,12.55,21.1,49.7,91,28.83,15.25,0,63.49
342.2734375,14.85,23.85,49.7,91,28.83,15.25,0,63.49
342.28125,14.25,25.55,49.7,91,28.83,15.25,0,63.49
342.2890625,12,24,49.7,91,28.83,15.25,0,63.49
342.296875,13.55,22.55,49.7,91,28.83,15.25,0,63.49
342.3046875,13.95,21,49.7,91,28.83,15.25,0,63.49
342.3125,9.55,17.2,49.7,91,28.83,15.25,0,63.49
342.3203125,10.15,17.4,49.7,91,28.83,15.25,0,63.49
342.328125,10.95,19.45,49.7,91,28.83,15.25,0,63.49
342.3359375,14.45,23.15,49.7,91,28.83,15.25,0,63.49
342.34375,16.3,24.05,49.7,91,28.83,15.25,0,63.49
342.3515625,18.35,25.35,49.7,91,28.83,15.25,0,63.49
342.359375,15.5,22.3,49.7,91,28.83,15.25,0,63.49
342.3671875,17,22.45,49.7,91,28.83,15.25,0,63.49
342.375,16.1,21.75,49.7,91,28.83,15.25,0,63.49
342.3828125,15.7,21.75,49.7,91,28.83,15.25,0,63.49
342.390625,13.95,20.2,49.7,91,28.83,15.25,0,63.49
342.3984375,14.65,22,49.7,91,28.83,15.25,0,63.49
342.40625,15.35,23.4,49.7,91,28.83,15.25,0,63.49
342.4140625,14.3,25,49.7,91,28.83,15.25,0,63.49
342.421875,14.05,26.95,49.7,91,28.83,15.25,0,63.49
342.4296875,14.45,27.7,49.7,91,28.83,15.25,0,63.49
342.4375,16.45,28.3,49.7,91,28.83,15.25,0,63.49
342.4453125,15.1,28,49.7,91,28.83,15.25,0,63.49
342.453125,14.4,27.7,49.7,91,28.83,15.25,0,63.49
342.4609375,10.05,24.35,49.7,91,28.83,15.25,0,63.49
342.46875,10.35,23.9,49.7,91,28.83,15.25,0,63.49
342.4765625,8.5,21.7,49.7,91,28.83,15.25,0,63.49
342.484375,10.15,21.85,49.7,91,28.83,15.25,0,63.49
342.4921875,12,21.75,49.7,91,28.83,15.25,0,63.49
342.5,17.7,25.2,49.7,91,28.83,15.25,0,63.49
342.5078125,18.4,25.9,49.7,91,28.83,15.25,0,63.49
342.515625,17.1,26.35,49.7,91,28.83,15.25,0,63.49
342.5234375,13.85,24.9,49.7,91,28.83,15.25,0,63.49
342.53125,11.5,23.3,49.7,91,28.83,15.25,0,63.49
342.5390625,8.45,19.8,49.7,91,28.83,15.25,0,63.49
342.546875,3.05,16,49.7,91,28.83,15.25,0,63.49
342.5546875,3.45,15.6,49.7,91,28.83,15.25,0,63.49
342.5625,7.55,18.1,49.7,91,28.83,15.25,0,63.49
342.5703125,18.8,26.2,49.7,91,28.83,15.25,0,63.49
342.578125,26.45,31.7,49.7,91,28.83,15.25,0,63.49
342.5859375,31.1,34.35,49.7,91,28.83,15.25,0,63.49
342.59375,27.7,32.25,49.7,91,28.83,15.25,0,63.49
342.6015625,24.65,31.45,49.7,91,28.83,15.25,0,63.49
342.609375,18.05,27.4,49.7,91,28.83,15.25,0,63.49
342.6171875,18.2,27.85,49.7,91,28.83,15.25,0,63.49
342.625,16.3,26.25,49.7,91,28.83,15.25,0,63.49
342.6328125,13.7,24.9,49.7,91,28.83,15.25,0,63.49
342.640625,10.35,22.35,49.7,91,28.83,15.25,0,63.49
342.6484375,10.85,23.05,49.7,91,28.83,15.25,0,63.49
342.65625,11.5,22.95,49.7,91,28.83,15.25,0,63.49
342.6640625,11.9,23.95,49.7,91,28.83,15.25,0,63.49
342.671875,8.15,23.05,49.7,91,28.83,15.25,0,63.49
342.6796875,6.8,22.85,49.7,91,28.83,15.25,0,63.49
342.6875,13.6,25.4,49.7,91,28.83,15.25,0,63.49
342.6953125,16.9,25.55,49.7,91,28.83,15.25,0,63.49
342.703125,21.2,26.4,49.7,91,28.83,15.25,0,63.49
342.7109375,22.2,25.5,49.7,91,28.83,15.25,0,63.49
342.71875,19.15,23.95,49.7,91,28.83,15.25,0,63.49
342.7265625,12.5,19.95,49.7,91,28.83,15.25,0,63.49
342.734375,13.7,21.1,49.7,91,28.83,15.25,0,63.49
342.7421875,16.75,21.95,49.7,91,28.83,15.25,0,63.49
342.75,24.5,25.8,49.7,91,28.83,15.25,0,63.49
342.7578125,25.9,25.45,49.7,91,28.83,15.25,0,63.49
342.765625,25.45,25.25,49.7,91,28.83,15.25,0,63.49
342.7734375,22.85,23.6,49.7,91,28.83,15.25,0,63.49
342.78125,15.55,20.6,49.7,91,28.83,15.25,0,63.49
342.7890625,8.95,16.95,49.7,91,28.83,15.25,0,63.49
342.796875,7.6,16.5,49.7,91,28.83,15.25,0,63.49
342.8046875,9.85,17.8,49.7,91,28.83,15.25,0,63.49
342.8125,12.85,18.7,49.7,91,28.83,15.25,0,63.49
342.8203125,17.35,20.5,49.7,91,28.83,15.25,0,63.49
342.828125,13.75,18.75,49.7,91,28.83,15.25,0,63.49
342.8359375,12.75,18.5,49.7,91,28.83,15.25,0,63.49
342.84375,12.7,16.8,49.7,91,28.83,15.25,0,63.49
342.8515625,18.3,19.35,49.7,91,28.83,15.25,0,63.49
342.859375,21.4,20.3,49.7,91,28.83,15.25,0,63.49
342.8671875,25.45,22.8,49.7,91,28.83,15.25,0,63.49
342.875,24.9,22.5,49.7,91,28.83,15.25,0,63.49
342.8828125,23.9,23.35,49.7,91,28.83,15.25,0,63.49
342.890625,14.45,18.65,49.7,91,28.83,15.25,0,63.49
342.8984375,4.75,13.2,49.7,91,28.83,15.25,0,63.49
342.90625,-0.15,7.9,49.7,91,28.83,15.25,0,63.49
342.9140625,0.65,4.95,49.7,91,28.83,15.25,0,63.49
342.921875,3.85,3.6,49.7,91,28.83,15.25,0,63.49
342.9296875,9.25,4.25,49.7,91,28.83,15.25,0,63.49
342.9375,16.15,5.85,49.7,91,28.83,15.25,0,63.49
342.9453125,18.85,6.65,49.7,91,28.83,15.25,0,63.49
342.953125,23.35,9.25,49.7,91,28.83,15.25,0,63.49
342.9609375,24,8.5,49.7,91,28.83,15.25,0,63.49
342.96875,19.15,6.35,49.7,91,28.83,15.25,0,63.49
342.9765625,8.45,1,49.7,91,28.83,15.25,0,63.49
342.984375,8.5,1.85,49.7,91,28.83,15.25,0,63.49
342.9921875,10.8,4,49.7,91,28.83,15.25,0,63.49
343,12.45,6.6,49.7,91,28.83,15.25,0,63.49
343.0078125,10.6,5.25,49.7,91,28.83,15.25,0,63.49
343.015625,11.55,6.3,49.7,91,28.83,15.25,0,63.49
343.0234375,12.8,6.85,49.7,91,28.83,15.25,0,63.49
343.03125,12.75,7.3,49.7,91,28.83,15.25,0,63.49
343.0390625,8.15,4.95,49.7,91,28.83,15.25,0,63.49
343.046875,2.8,2.15,49.7,91,28.83,15.25,0,63.49
343.0546875,1.35,2.15,49.7,91,28.83,15.25,0,63.49
343.0625,-0.9,3.25,49.7,91,28.83,15.25,0,63.49
343.0703125,0.75,6,49.7,91,28.83,15.25,0,63.49
343.078125,4.1,8.25,49.7,91,28.83,15.25,0,63.49
343.0859375,14.15,14.05,49.7,91,28.83,15.25,0,63.49
343.09375,19.2,15.25,49.7,91,28.83,15.25,0,63.49
343.1015625,20.9,14.5,49.7,91,28.83,15.25,0,63.49
343.109375,15.55,10.35,49.7,91,28.83,15.25,0,63.49
343.1171875,13.95,10.15,49.7,91,28.83,15.25,0,63.49
343.125,9.85,7.95,49.7,91,28.83,15.25,0,63.49
343.1328125,9.1,8.85,49.7,91,28.83,15.25,0,63.49
343.140625,7.75,9.3,49.7,91,28.83,15.25,0,63.49
343.1484375,5.85,10,49.7,91,28.83,15.25,0,63.49
343.15625,4.25,8.65,50.2,91.7,29.39,15.37,0,63.32
343.1640625,9.1,10.75,50.2,91.7,29.39,15.37,0,63.32
343.171875,14.5,13.45,50.2,91.7,29.39,15.37,0,63.32
343.1796875,16.5,12.95,50.2,91.7,29.39,15.37,0,63.32
343.1875,20.5,12.45,50.2,91.7,29.39,15.37,0,63.32
343.1953125,19.7,11.9,50.2,91.7,29.39,15.37,0,63.32
343.203125,16.4,13,50.2,91.7,29.39,15.37,0,63.32
343.2109375,9.15,12,50.2,91.7,29.39,15.37,0,63.32
343.21875,4.4,12.25,50.2,91.7,29.39,15.37,0,63.32
343.2265625,-1.9,9.3,50.2,91.7,29.39,15.37,0,63.32
343.234375,-0.65,10.2,50.2,91.7,29.39,15.37,0,63.32
343.2421875,1.2,11.45,50.2,91.7,29.39,15.37,0,63.32
343.25,8.6,16.25,50.2,91.7,29.39,15.37,0,63.32
343.2578125,13.2,17.75,50.2,91.7,29.39,15.37,0,63.32
343.265625,16.2,19.6,50.2,91.7,29.39,15.37,0,63.32
343.2734375,17.1,19.6,50.2,91.7,29.39,15.37,0,63.32
343.28125,19.45,21.6,50.2,91.7,29.39,15.37,0,63.32
343.2890625,21.15,24.05,50.2,91.7,29.39,15.37,0,63.32
343.296875,21.8,26.2,50.2,91.7,29.39,15.37,0,63.32
343.3046875,22.7,26.7,50.2,91.7,29.39,15.37,0,63.32
343.3125,20.75,25.5,50.2,91.7,29.39,15.37,0,63.32
343.3203125,20.65,26.9,50.2,91.7,29.39,15.37,0,63.32
343.328125,17.7,26.5,50.2,91.7,29.39,15.37,0,63.32
343.3359375,17.25,26.7,50.2,91.7,29.39,15.37,0,63.32
343.34375,14.8,24.2,50.2,91.7,29.39,15.37,0,63.32
343.3515625,18.95,24.15,50.2,91.7,29.39,15.37,0,63.32
343.359375,20.5,21.35,50.2,91.7,29.39,15.37,0,63.32
343.3671875,20.7,20,50.2,91.7,29.39,15.37,0,63.32
343.375,17.1,16.8,50.2,91.7,29.39,15.37,0,63.32
343.3828125,19.95,18.9,50.2,91.7,29.39,15.37,0,63.32
343.390625,22.05,21.2,50.2,91.7,29.39,15.37,0,63.32
343.3984375,24.35,24.1,50.2,91.7,29.39,15.37,0,63.32
343.40625,26,24.95,50.2,91.7,29.39,15.37,0,63.32
343.4140625,25.1,23.75,50.2,91.7,29.39,15.37,0,63.32
343.421875,22.85,20.6,50.2,91.7,29.39,15.37,0,63.32
343.4296875,20.25,17.9,50.2,91.7,29.39,15.37,0,63.32
343.4375,18,16.9,50.2,91.7,29.39,15.37,0,63.32
343.4453125,13.35,15.6,50.2,91.7,29.39,15.37,0,63.32
343.453125,13.5,16.7,50.2,91.7,29.39,15.37,0,63.32
343.4609375,15.35,17.25,50.2,91.7,29.39,15.37,0,63.32
343.46875,22.55,20.1,50.2,91.7,29.39,15.37,0,63.32
343.4765625,21.7,17.15,50.2,91.7,29.39,15.37,0,63.32
343.484375,17,13.4,50.2,91.7,29.39,15.37,0,63.32
343.4921875,11.75,9.9,50.2,91.7,29.39,15.37,0,63.32
343.5,12.9,11.35,50.2,91.7,29.39,15.37,0,63.32
343.5078125,12,11.15,50.2,91.7,29.39,15.37,0,63.32
343.515625,16.45,14.1,50.2,91.7,29.39,15.37,0,63.32
343.5234375,23.55,17.2,50.2,91.7,29.39,15.37,0,63.32
343.53125,27.2,19.6,50.2,91.7,29.39,15.37,0,63.32
343.5390625,26.7,19.35,50.2,91.7,29.39,15.37,0,63.32
343.546875,22.75,17.65,50.2,91.7,29.39,15.37,0,63.32
343.5546875,19.7,16.5,50.2,91.7,29.39,15.37,0,63.32
343.5625,19.65,17.4,50.2,91.7,29.39,15.37,0,63.32
343.5703125,25.8,21.45,50.2,91.7,29.39,15.37,0,63.32
343.578125,26.45,22.3,50.2,91.7,29.39,15.37,0,63.32
343.5859375,25.95,23.65,50.2,91.7,29.39,15.37,0,63.32
343.59375,18.25,22.15,50.2,91.7,29.39,15.37,0,63.32
343.6015625,11.5,21.45,50.2,91.7,29.39,15.37,0,63.32
343.609375,6.35,19.7,50.2,91.7,29.39,15.37,0,63.32
343.6171875,11.3,23.2,50.2,91.7,29.39,15.37,0,63.32
343.625,15.5,24.55,50.2,91.7,29.39,15.37,0,63.32
343.6328125,19.95,27.65,50.2,91.7,29.39,15.37,0,63.32
343.640625,23.65,30.2,50.2,91.7,29.39,15.37,0,63.32
343.6484375,31.05,34.4,50.2,91.7,29.39,15.37,0,63.32
343.65625,36.3,35.55,50.2,91.7,29.39,15.37,0,63.32
343.6640625,36.55,34,50.2,91.7,29.39,15.37,0,63.32
343.671875,33,31.1,50.2,91.7,29.39,15.37,0,63.32
343.6796875,29.9,29.75,50.2,91.7,29.39,15.37,0,63.32
343.6875,32.9,30.85,50.2,91.7,29.39,15.37,0,63.32
343.6953125,36.2,32,50.2,91.7,29.39,15.37,0,63.32
343.703125,37.1,33.1,50.2,91.7,29.39,15.37,0,63.32
343.7109375,31.7,29.3,50.2,91.7,29.39,15.37,0,63.32
343.71875,33.6,29.95,50.2,91.7,29.39,15.37,0,63.32
343.7265625,35.3,31.5,50.2,91.7,29.39,15.37,0,63.32
343.734375,41.7,36.25,50.2,91.7,29.39,15.37,0,63.32
343.7421875,49.15,40.95,50.2,91.7,29.39,15.37,0,63.32
343.75,57.9,46.65,50.2,91.7,29.39,15.37,0,63.32
343.7578125,57.2,44.55,50.2,91.7,29.39,15.37,0,63.32
343.765625,52.9,41.8,50.2,91.7,29.39,15.37,0,63.32
343.7734375,44.95,37.85,50.2,91.7,29.39,15.37,0,63.32
343.78125,38.85,35.4,50.2,91.7,29.39,15.37,0,63.32
343.7890625,36.1,34.5,50.2,91.7,29.39,15.37,0,63.32
343.796875,35.95,34.85,50.2,91.7,29.39,15.37,0,63.32
343.8046875,35.6,33.85,50.2,91.7,29.39,15.37,0,63.32
343.8125,31.75,31.7,50.2,91.7,29.39,15.37,0,63.32
343.8203125,32.7,32.25,50.2,91.7,29.39,15.37,0,63.32
343.828125,36.85,33.9,50.2,91.7,29.39,15.37,0,63.32
343.8359375,45.55,37.8,50.2,91.7,29.39,15.37,0,63.32
343.84375,47.95,36.95,50.2,91.7,29.39,15.37,0,63.32
343.8515625,47,35.7,50.2,91.7,29.39,15.37,0,63.32
343.859375,40.5,31.15,50.2,91.7,29.39,15.37,0,63.32
343.8671875,38.4,29,50.2,91.7,29.39,15.37,0,63.32
343.875,37.55,27.9,50.2,91.7,29.39,15.37,0,63.32
343.8828125,41.55,31.45,50.2,91.7,29.39,15.37,0,63.32
343.890625,44.7,33.05,50.2,91.7,29.39,15.37,0,63.32
343.8984375,49.2,36.65,50.2,91.7,29.39,15.37,0,63.32
343.90625,53.55,39.6,50.2,91.7,29.39,15.37,0,63.32
343.9140625,57.2,42.9,50.2,91.7,29.39,15.37,0,63.32
343.921875,60.55,46.3,50.2,91.7,29.39,15.37,0,63.32
343.9296875,63.1,48.05,50.2,91.7,29.39,15.37,0,63.32
343.9375,64.55,47.7,50.2,91.7,29.39,15.37,0,63.32
343.9453125,64.3,46.7,50.2,91.7,29.39,15.37,0,63.32
343.953125,66.45,47.5,50.2,91.7,29.39,15.37,0,63.32
343.9609375,62.35,44.1,50.2,91.7,29.39,15.37,0,63.32
343.96875,63.95,45.6,50.2,91.7,29.39,15.37,0,63.32
343.9765625,66.8,48.05,50.2,91.7,29.39,15.37,0,63.32
343.984375,71.4,51.65,50.2,91.7,29.39,15.37,0,63.32
343.9921875,69.7,50.4,50.2,91.7,29.39,15.37,0,63.32
344,70.05,51.45,50.2,91.7,29.39,15.37,0,63.32
344.0078125,69.75,52.4,50.2,91.7,29.39,15.37,0,63.32
344.015625,77.9,57.85,50.2,91.7,29.39,15.37,0,63.32
344.0234375,85.7,61.3,50.2,91.7,29.39,15.37,0,63.32
344.03125,85.25,62,50.2,91.7,29.39,15.37,0,63.32
344.0390625,76.7,57.7,50.2,91.7,29.39,15.37,0,63.32
344.046875,67.25,51.2,50.2,91.7,29.39,15.37,0,63.32
344.0546875,63.75,46.85,50.2,91.7,29.39,15.37,0,63.32
344.0625,65.65,47.25,50.2,91.7,29.39,15.37,0,63.32
344.0703125,71.9,51.95,50.2,91.7,29.39,15.37,0,63.32
344.078125,74.1,54.4,50.2,91.7,29.39,15.37,0,63.32
344.0859375,75.55,56.7,50.2,91.7,29.39,15.37,0,63.32
344.09375,73.15,56.55,50.2,91.7,29.39,15.37,0,63.32
344.1015625,75.1,58.5,50.2,91.7,29.39,15.37,0,63.32
344.109375,75.75,58.2,50.2,91.7,29.39,15.37,0,63.32
344.1171875,76.9,58.5,50.2,91.7,29.39,15.37,0,63.32
344.125,74,55.05,50.2,91.7,29.39,15.37,0,63.32
344.1328125,72.95,54.15,50.2,91.7,29.39,15.37,0,63.32
344.140625,68.2,52.1,50.2,91.7,29.39,15.37,0,63.32
344.1484375,65.8,52.3,50.2,91.7,29.39,15.37,0,63.32
344.15625,65.45,53.45,49.1,92.9,29.6,15.26,0,63.45
344.1640625,65.7,55.35,49.1,92.9,29.6,15.26,0,63.45
344.171875,66.2,55.2,49.1,92.9,29.6,15.26,0,63.45
344.1796875,67,55.8,49.1,92.9,29.6,15.26,0,63.45
344.1875,68.05,58.2,49.1,92.9,29.6,15.26,0,63.45
344.1953125,65.05,57.85,49.1,92.9,29.6,15.26,0,63.45
344.203125,65.7,59,49.1,92.9,29.6,15.26,0,63.45
344.2109375,65.1,58.95,49.1,92.9,29.6,15.26,0,63.45
344.21875,65.7,58.65,49.1,92.9,29.6,15.26,0,63.45
344.2265625,63.25,56.1,49.1,92.9,29.6,15.26,0,63.45
344.234375,63.35,57.25,49.1,92.9,29.6,15.26,0,63.45
344.2421875,59.6,55.55,49.1,92.9,29.6,15.26,0,63.45
344.25,60.7,56.3,49.1,92.9,29.6,15.26,0,63.45
344.2578125,61.65,55.75,49.1,92.9,29.6,15.26,0,63.45
344.265625,62.25,55.8,49.1,92.9,29.6,15.26,0,63.45
344.2734375,59.95,54.5,49.1,92.9,29.6,15.26,0,63.45
344.28125,57.8,54.45,49.1,92.9,29.6,15.26,0,63.45
344.2890625,56.25,54.65,49.1,92.9,29.6,15.26,0,63.45
344.296875,57.5,56.5,49.1,92.9,29.6,15.26,0,63.45
344.3046875,60.35,58,49.1,92.9,29.6,15.26,0,63.45
344.3125,57.6,56.05,49.1,92.9,29.6,15.26,0,63.45
344.3203125,55.4,54.4,49.1,92.9,29.6,15.26,0,63.45
344.328125,53.8,52.9,49.1,92.9,29.6,15.26,0,63.45
344.3359375,56.45,55.4,49.1,92.9,29.6,15.26,0,63.45
344.34375,53.65,54.8,49.1,92.9,29.6,15.26,0,63.45
344.3515625,52.6,52.55,49.1,92.9,29.6,15.26,0,63.45
344.359375,50.55,47.15,49.1,92.9,29.6,15.26,0,63.45
344.3671875,51.35,46.3,49.1,92.9,29.6,15.26,0,63.45
344.375,48.8,44.45,49.1,92.9,29.6,15.26,0,63.45
344.3828125,47.85,45.35,49.1,92.9,29.6,15.26,0,63.45
344.390625,47.3,45.85,49.1,92.9,29.6,15.26,0,63.45
344.3984375,50.9,48.3,49.1,92.9,29.6,15.26,0,63.45
344.40625,48.7,46.65,49.1,92.9,29.6,15.26,0,63.45
344.4140625,43.85,44.75,49.1,92.9,29.6,15.26,0,63.45
344.421875,44.75,45.4,49.1,92.9,29.6,15.26,0,63.45
344.4296875,45.3,46.3,49.1,92.9,29.6,15.26,0,63.45
344.4375,45.2,46.5,49.1,92.9,29.6,15.26,0,63.45
344.4453125,45.85,47.25,49.1,92.9,29.6,15.26,0,63.45
344.453125,50,50.4,49.1,92.9,29.6,15.26,0,63.45
344.4609375,48.55,48.4,49.1,92.9,29.6,15.26,0,63.45
344.46875,51.65,47.95,49.1,92.9,29.6,15.26,0,63.45
344.4765625,50.95,45.75,49.1,92.9,29.6,15.26,0,63.45
344.484375,50.75,45.65,49.1,92.9,29.6,15.26,0,63.45
344.4921875,50.2,45.75,49.1,92.9,29.6,15.26,0,63.45
344.5,54.85,50.3,49.1,92.9,29.6,15.26,0,63.45
344.5078125,54.55,49.85,49.1,92.9,29.6,15.26,0,63.45
344.515625,53.6,48.25,49.1,92.9,29.6,15.26,0,63.45
344.5234375,50.65,45.05,49.1,92.9,29.6,15.26,0,63.45
344.53125,48,42.85,49.1,92.9,29.6,15.26,0,63.45
344.5390625,43.35,40.15,49.1,92.9,29.6,15.26,0,63.45
344.546875,38,38.85,49.1,92.9,29.6,15.26,0,63.45
344.5546875,37.6,39.75,49.1,92.9,29.6,15.26,0,63.45
344.5625,39,40.25,49.1,92.9,29.6,15.26,0,63.45
344.5703125,42.45,40.4,49.1,92.9,29.6,15.26,0,63.45
344.578125,42.75,38.1,49.1,92.9,29.6,15.26,0,63.45
344.5859375,45.65,39.45,49.1,92.9,29.6,15.26,0,63.45
344.59375,46.5,40.15,49.1,92.9,29.6,15.26,0,63.45
344.6015625,51.1,43.65,49.1,92.9,29.6,15.26,0,63.45
344.609375,50.05,42.75,49.1,92.9,29.6,15.26,0,63.45
344.6171875,50.15,42.15,49.1,92.9,29.6,15.26,0,63.45
344.625,49.35,40.25,49.1,92.9,29.6,15.26,0,63.45
344.6328125,52,42.7,49.1,92.9,29.6,15.26,0,63.45
344.640625,51.65,42.15,49.1,92.9,29.6,15.26,0,63.45
344.6484375,52.05,42.5,49.1,92.9,29.6,15.26,0,63.45
344.65625,51.3,42.4,49.1,92.9,29.6,15.26,0,63.45
344.6640625,46,40.85,49.1,92.9,29.6,15.26,0,63.45
344.671875,34.5,34.6,49.1,92.9,29.6,15.26,0,63.45
344.6796875,25.25,27.85,49.1,92.9,29.6,15.26,0,63.45
344.6875,26.05,25.1,49.1,92.9,29.6,15.26,0,63.45
344.6953125,30.15,24.95,49.1,92.9,29.6,15.26,0,63.45
344.703125,37,28.85,49.1,92.9,29.6,15.26,0,63.45
344.7109375,39,31.15,49.1,92.9,29.6,15.26,0,63.45
344.71875,42.4,34.9,49.1,92.9,29.6,15.26,0,63.45
344.7265625,43.1,35.5,49.1,92.9,29.6,15.26,0,63.45
344.734375,43.95,36.05,49.1,92.9,29.6,15.26,0,63.45
344.7421875,39.65,33.3,49.1,92.9,29.6,15.26,0,63.45
344.75,35.45,31.15,49.1,92.9,29.6,15.26,0,63.45
344.7578125,23.75,24.4,49.1,92.9,29.6,15.26,0,63.45
344.765625,13.4,20.5,49.1,92.9,29.6,15.26,0,63.45
344.7734375,11.9,20.2,49.1,92.9,29.6,15.26,0,63.45
344.78125,17.05,23.6,49.1,92.9,29.6,15.26,0,63.45
344.7890625,23.3,27.25,49.1,92.9,29.6,15.26,0,63.45
344.796875,30.15,30.45,49.1,92.9,29.6,15.26,0,63.45
344.8046875,37.4,33.2,49.1,92.9,29.6,15.26,0,63.45
344.8125,41.65,34.9,49.1,92.9,29.6,15.26,0,63.45
344.8203125,46.15,36.85,49.1,92.9,29.6,15.26,0,63.45
344.828125,46.65,36.6,49.1,92.9,29.6,15.26,0,63.45
344.8359375,49.45,38.65,49.1,92.9,29.6,15.26,0,63.45
344.84375,48.9,37.7,49.1,92.9,29.6,15.26,0,63.45
344.8515625,48.6,37.9,49.1,92.9,29.6,15.26,0,63.45
344.859375,42.65,35.55,49.1,92.9,29.6,15.26,0,63.45
344.8671875,37.9,34.2,49.1,92.9,29.6,15.26,0,63.45
344.875,30.5,30.55,49.1,92.9,29.6,15.26,0,63.45
344.8828125,30.1,31.2,49.1,92.9,29.6,15.26,0,63.45
344.890625,33.1,31.7,49.1,92.9,29.6,15.26,0,63.45
344.8984375,35.65,33.25,49.1,92.9,29.6,15.26,0,63.45
344.90625,34.55,31.6,49.1,92.9,29.6,15.26,0,63.45
344.9140625,34.25,29.3,49.1,92.9,29.6,15.26,0,63.45
344.921875,34.5,26.7,49.1,92.9,29.6,15.26,0,63.45
344.9296875,34.15,24.7,49.1,92.9,29.6,15.26,0,63.45
344.9375,37.1,25.4,49.1,92.9,29.6,15.26,0,63.45
344.9453125,37.95,27.55,49.1,92.9,29.6,15.26,0,63.45
344.953125,37.9,30.45,49.1,92.9,29.6,15.26,0,63.45
344.9609375,31.9,28.85,49.1,92.9,29.6,15.26,0,63.45
344.96875,28.8,27.8,49.1,92.9,29.6,15.26,0,63.45
344.9765625,24.5,24.3,49.1,92.9,29.6,15.26,0,63.45
344.984375,26.15,22.45,49.1,92.9,29.6,15.26,0,63.45
344.9921875,27.15,20.4,49.1,92.9,29.6,15.26,0,63.45
345,30,21.7,49.1,92.9,29.6,15.26,0,63.45
345.0078125,24.15,19.4,49.1,92.9,29.6,15.26,0,63.45
345.015625,15.75,17.45,49.1,92.9,29.6,15.26,0,63.45
345.0234375,8.25,14.1,49.1,92.9,29.6,15.26,0,63.45
345.03125,4.8,10.7,49.1,92.9,29.6,15.26,0,63.45
345.0390625,2.8,7.6,49.1,92.9,29.6,15.26,0,63.45
345.046875,3.6,9.1,49.1,92.9,29.6,15.26,0,63.45
345.0546875,7.1,12.95,49.1,92.9,29.6,15.26,0,63.45
345.0625,8.85,13.75,49.1,92.9,29.6,15.26,0,63.45
345.0703125,14.75,14.5,49.1,92.9,29.6,15.26,0,63.45
345.078125,19.95,15.1,49.1,92.9,29.6,15.26,0,63.45
345.0859375,23.8,16.05,49.1,92.9,29.6,15.26,0,63.45
345.09375,23.7,15.4,49.1,92.9,29.6,15.26,0,63.45
345.1015625,27.55,20.1,49.1,92.9,29.6,15.26,0,63.45
345.109375,28.95,22.1,49.1,92.9,29.6,15.26,0,63.45
345.1171875,33.1,24.95,49.1,92.9,29.6,15.26,0,63.45
345.125,30.8,24.15,49.1,92.9,29.6,15.26,0,63.45
345.1328125,27,23.8,49.1,92.9,29.6,15.26,0,63.45
345.140625,22.35,20.65,49.1,92.9,29.6,15.26,0,63.45
345.1484375,19.8,18.9,49.1,92.9,29.6,15.26,0,63.45
345.15625,20.1,18.55,49.4,94.2,29.99,15.35,0,63.34
345.1640625,22.4,20.05,49.4,94.2,29.99,15.35,0,63.34
345.171875,16.05,16.05,49.4,94.2,29.99,15.35,0,63.34
345.1796875,5.75,10.6,49.4,94.2,29.99,15.35,0,63.34
345.1875,7.65,11.95,49.4,94.2,29.99,15.35,0,63.34
345.1953125,9.15,11.5,49.4,94.2,29.99,15.35,0,63.34
345.203125,7.5,10,49.4,94.2,29.99,15.35,0,63.34
345.2109375,0.8,7.8,49.4,94.2,29.99,15.35,0,63.34
345.21875,-2.35,7.75,49.4,94.2,29.99,15.35,0,63.34
345.2265625,-4.8,5.9,49.4,94.2,29.99,15.35,0,63.34
345.234375,1.75,9.3,49.4,94.2,29.99,15.35,0,63.34
345.2421875,3.85,9.6,49.4,94.2,29.99,15.35,0,63.34
345.25,4.75,11.95,49.4,94.2,29.99,15.35,0,63.34
345.2578125,0.55,12.65,49.4,94.2,29.99,15.35,0,63.34
345.265625,-3.8,12.35,49.4,94.2,29.99,15.35,0,63.34
345.2734375,-8.95,8.3,49.4,94.2,29.99,15.35,0,63.34
345.28125,-11.65,5.95,49.4,94.2,29.99,15.35,0,63.34
345.2890625,-12.65,3.4,49.4,94.2,29.99,15.35,0,63.34
345.296875,-11.1,2.9,49.4,94.2,29.99,15.35,0,63.34
345.3046875,-6.35,5.25,49.4,94.2,29.99,15.35,0,63.34
345.3125,-4.55,6.75,49.4,94.2,29.99,15.35,0,63.34
345.3203125,-4.2,7.65,49.4,94.2,29.99,15.35,0,63.34
345.328125,-7.95,7.45,49.4,94.2,29.99,15.35,0,63.34
345.3359375,-6.5,11,49.4,94.2,29.99,15.35,0,63.34
345.34375,-0.95,15.15,49.4,94.2,29.99,15.35,0,63.34
345.3515625,10.7,21.55,49.4,94.2,29.99,15.35,0,63.34
345.359375,14.85,21.8,49.4,94.2,29.99,15.35,0,63.34
345.3671875,19.05,22.25,49.4,94.2,29.99,15.35,0,63.34
345.375,18.65,19.55,49.4,94.2,29.99,15.35,0,63.34
345.3828125,15.7,17.5,49.4,94.2,29.99,15.35,0,63.34
345.390625,9.35,14,49.4,94.2,29.99,15.35,0,63.34
345.3984375,9.4,15.35,49.4,94.2,29.99,15.35,0,63.34
345.40625,10.3,16.45,49.4,94.2,29.99,15.35,0,63.34
345.4140625,10.7,17.6,49.4,94.2,29.99,15.35,0,63.34
345.421875,8.75,17.35,49.4,94.2,29.99,15.35,0,63.34
345.4296875,4.3,16.45,49.4,94.2,29.99,15.35,0,63.34
345.4375,3.8,18,49.4,94.2,29.99,15.35,0,63.34
345.4453125,6.05,19.5,49.4,94.2,29.99,15.35,0,63.34
345.453125,12.8,21.75,49.4,94.2,29.99,15.35,0,63.34
345.4609375,17.9,23.6,49.4,94.2,29.99,15.35,0,63.34
345.46875,22.8,27.3,49.4,94.2,29.99,15.35,0,63.34
345.4765625,21.5,26.05,49.4,94.2,29.99,15.35,0,63.34
345.484375,22.6,25.65,49.4,94.2,29.99,15.35,0,63.34
345.4921875,19.05,22.7,49.4,94.2,29.99,15.35,0,63.34
345.5,17.15,22.45,49.4,94.2,29.99,15.35,0,63.34
345.5078125,15.9,21.7,49.4,94.2,29.99,15.35,0,63.34
345.515625,18.8,23.9,49.4,94.2,29.99,15.35,0,63.34
345.5234375,21.7,25.25,49.4,94.2,29.99,15.35,0,63.34
345.53125,26.8,27.2,49.4,94.2,29.99,15.35,0,63.34
345.5390625,30.4,27.55,49.4,94.2,29.99,15.35,0,63.34
345.546875,33.8,29.35,49.4,94.2,29.99,15.35,0,63.34
345.5546875,37.8,31.3,49.4,94.2,29.99,15.35,0,63.34
345.5625,34,28.05,49.4,94.2,29.99,15.35,0,63.34
345.5703125,24.05,21.9,49.4,94.2,29.99,15.35,0,63.34
345.578125,13.4,16,49.4,94.2,29.99,15.35,0,63.34
345.5859375,8.8,14.1,49.4,94.2,29.99,15.35,0,63.34
345.59375,1.4,10.95,49.4,94.2,29.99,15.35,0,63.34
345.6015625,0.85,12.4,49.4,94.2,29.99,15.35,0,63.34
345.609375,3.15,11.85,49.4,94.2,29.99,15.35,0,63.34
345.6171875,9.4,11.9,49.4,94.2,29.99,15.35,0,63.34
345.625,12.1,10.45,49.4,94.2,29.99,15.35,0,63.34
345.6328125,17.35,12.8,49.4,94.2,29.99,15.35,0,63.34
345.640625,19.15,13.3,49.4,94.2,29.99,15.35,0,63.34
345.6484375,17.45,13.6,49.4,94.2,29.99,15.35,0,63.34
345.65625,9,10.1,49.4,94.2,29.99,15.35,0,63.34
345.6640625,-0.1,7.8,49.4,94.2,29.99,15.35,0,63.34
345.671875,-5.45,7.95,49.4,94.2,29.99,15.35,0,63.34
345.6796875,-5.9,9.25,49.4,94.2,29.99,15.35,0,63.34
345.6875,-0.15,12.65,49.4,94.2,29.99,15.35,0,63.34
345.6953125,4.45,15.25,49.4,94.2,29.99,15.35,0,63.34
345.703125,9.9,17.5,49.4,94.2,29.99,15.35,0,63.34
345.7109375,9.95,16.5,49.4,94.2,29.99,15.35,0,63.34
345.71875,10.65,18.15,49.4,94.2,29.99,15.35,0,63.34
345.7265625,8.15,17.1,49.4,94.2,29.99,15.35,0,63.34
345.734375,9.55,17.65,49.4,94.2,29.99,15.35,0,63.34
345.7421875,9.15,17.6,49.4,94.2,29.99,15.35,0,63.34
345.75,14.3,22.2,49.4,94.2,29.99,15.35,0,63.34
345.7578125,18.1,23.7,49.4,94.2,29.99,15.35,0,63.34
345.765625,22.7,25.7,49.4,94.2,29.99,15.35,0,63.34
345.7734375,24.05,26.1,49.4,94.2,29.99,15.35,0,63.34
345.78125,21.35,25.5,49.4,94.2,29.99,15.35,0,63.34
345.7890625,16.25,21.55,49.4,94.2,29.99,15.35,0,63.34
345.796875,13.8,19.1,49.4,94.2,29.99,15.35,0,63.34
345.8046875,14.5,20,49.4,94.2,29.99,15.35,0,63.34
345.8125,12.5,20.2,49.4,94.2,29.99,15.35,0,63.34
345.8203125,12.55,20.1,49.4,94.2,29.99,15.35,0,63.34
345.828125,11.6,19.2,49.4,94.2,29.99,15.35,0,63.34
345.8359375,14.85,21.8,49.4,94.2,29.99,15.35,0,63.34
345.84375,15.05,21.45,49.4,94.2,29.99,15.35,0,63.34
345.8515625,15.5,20.05,49.4,94.2,29.99,15.35,0,63.34
345.859375,11.7,16.8,49.4,94.2,29.99,15.35,0,63.34
345.8671875,12.85,18.6,49.4,94.2,29.99,15.35,0,63.34
345.875,15.8,20.15,49.4,94.2,29.99,15.35,0,63.34
345.8828125,24.45,25.15,49.4,94.2,29.99,15.35,0,63.34
345.890625,27.55,25.95,49.4,94.2,29.99,15.35,0,63.34
345.8984375,27.7,25.3,49.4,94.2,29.99,15.35,0,63.34
345.90625,26.5,24.7,49.4,94.2,29.99,15.35,0,63.34
345.9140625,24.35,24.9,49.4,94.2,29.99,15.35,0,63.34
345.921875,23.35,24.35,49.4,94.2,29.99,15.35,0,63.34
345.9296875,22.05,23.95,49.4,94.2,29.99,15.35,0,63.34
345.9375,20.7,22.75,49.4,94.2,29.99,15.35,0,63.34
345.9453125,20.25,20.5,49.4,94.2,29.99,15.35,0,63.34
345.953125,26.25,23.25,49.4,94.2,29.99,15.35,0,63.34
345.9609375,27.65,23.7,49.4,94.2,29.99,15.35,0,63.34
345.96875,29.7,25.6,49.4,94.2,29.99,15.35,0,63.34
345.9765625,28.95,26.55,49.4,94.2,29.99,15.35,0,63.34
345.984375,28.65,29,49.4,94.2,29.99,15.35,0,63.34
345.9921875,26.65,28.9,49.4,94.2,29.99,15.35,0,63.34
346,29.4,31.6,49.4,94.2,29.99,15.35,0,63.34
346.0078125,28.2,30.1,49.4,94.2,29.99,15.35,0,63.34
346.015625,26.2,29.65,49.4,94.2,29.99,15.35,0,63.34
346.0234375,23.2,28.85,49.4,94.2,29.99,15.35,0,63.34
346.03125,21.15,29.1,49.4,94.2,29.99,15.35,0,63.34
346.0390625,20.45,29.6,49.4,94.2,29.99,15.35,0,63.34
346.046875,19.75,30.65,49.4,94.2,29.99,15.35,0,63.34
346.0546875,19.5,30.35,49.4,94.2,29.99,15.35,0,63.34
346.0625,17.75,29.75,49.4,94.2,29.99,15.35,0,63.34
346.0703125,21.5,33.3,49.4,94.2,29.99,15.35,0,63.34
346.078125,24.25,36.05,49.4,94.2,29.99,15.35,0,63.34
346.0859375,30.7,39.25,49.4,94.2,29.99,15.35,0,63.34
346.09375,32.3,38.4,49.4,94.2,29.99,15.35,0,63.34
346.1015625,34.65,39.15,49.4,94.2,29.99,15.35,0,63.34
346.109375,33.4,37.2,49.4,94.2,29.99,15.35,0,63.34
346.1171875,35.65,38.45,49.4,94.2,29.99,15.35,0,63.34
346.125,36.4,39.15,49.4,94.2,29.99,15.35,0,63.34
346.1328125,40.6,41.6,49.4,94.2,29.99,15.35,0,63.34
346.140625,40.65,41.25,49.4,94.2,29.99,15.35,0,63.34
346.1484375,37.8,40.35,49.4,94.2,29.99,15.35,0,63.34
346.15625,32.25,36.9,48.7,95.5,30.28,15.42,0,63.43
346.1640625,31,36.65,48.7,95.5,30.28,15.42,0,63.43
346.171875,34.55,38.55,48.7,95.5,30.28,15.42,0,63.43
346.1796875,38.35,39.35,48.7,95.5,30.28,15.42,0,63.43
346.1875,39.95,39.65,48.7,95.5,30.28,15.42,0,63.43
346.1953125,39.8,38.8,48.7,95.5,30.28,15.42,0,63.43
346.203125,43,39.7,48.7,95.5,30.28,15.42,0,63.43
346.2109375,42.9,38.25,48.7,95.5,30.28,15.42,0,63.43
346.21875,46,38.9,48.7,95.5,30.28,15.42,0,63.43
346.2265625,43.85,37.45,48.7,95.5,30.28,15.42,0,63.43
346.234375,39.55,38.15,48.7,95.5,30.28,15.42,0,63.43
346.2421875,36.6,37.9,48.7,95.5,30.28,15.42,0,63.43
346.25,40.45,42.05,48.7,95.5,30.28,15.42,0,63.43
346.2578125,40.75,42.9,48.7,95.5,30.28,15.42,0,63.43
346.265625,45.05,43.85,48.7,95.5,30.28,15.42,0,63.43
346.2734375,46.3,41,48.7,95.5,30.28,15.42,0,63.43
346.28125,40.3,35.8,48.7,95.5,30.28,15.42,0,63.43
346.2890625,35.1,30.9,48.7,95.5,30.28,15.42,0,63.43
346.296875,33.2,30.25,48.7,95.5,30.28,15.42,0,63.43
346.3046875,33,31.65,48.7,95.5,30.28,15.42,0,63.43
346.3125,34.35,33.45,48.7,95.5,30.28,15.42,0,63.43
346.3203125,36.3,35.3,48.7,95.5,30.28,15.42,0,63.43
346.328125,28.25,30.85,48.7,95.5,30.28,15.42,0,63.43
346.3359375,21.7,25.8,48.7,95.5,30.28,15.42,0,63.43
346.34375,17.55,21.4,48.7,95.5,30.28,15.42,0,63.43
346.3515625,24.3,23,48.7,95.5,30.28,15.42,0,63.43
346.359375,30.6,23.8,48.7,95.5,30.28,15.42,0,63.43
346.3671875,35.95,26.65,48.7,95.5,30.28,15.42,0,63.43
346.375,36.35,27.95,48.7,95.5,30.28,15.42,0,63.43
346.3828125,36.05,30.15,48.7,95.5,30.28,15.42,0,63.43
346.390625,29.5,28.9,48.7,95.5,30.28,15.42,0,63.43
346.3984375,27.35,30.6,48.7,95.5,30.28,15.42,0,63.43
346.40625,28.4,31.2,48.7,95.5,30.28,15.42,0,63.43
346.4140625,31,32,48.7,95.5,30.28,15.42,0,63.43
346.421875,33.8,33.3,48.7,95.5,30.28,15.42,0,63.43
346.4296875,34.6,34.6,48.7,95.5,30.28,15.42,0,63.43
346.4375,37.05,35.95,48.7,95.5,30.28,15.42,0,63.43
346.4453125,38.85,35.75,48.7,95.5,30.28,15.42,0,63.43
346.453125,39.65,35.3,48.7,95.5,30.28,15.42,0,63.43
346.4609375,37.3,33.2,48.7,95.5,30.28,15.42,0,63.43
346.46875,39.2,34.15,48.7,95.5,30.28,15.42,0,63.43
346.4765625,37.25,33.25,48.7,95.5,30.28,15.42,0,63.43
346.484375,37.8,34.5,48.7,95.5,30.28,15.42,0,63.43
346.4921875,36.4,33.7,48.7,95.5,30.28,15.42,0,63.43
346.5,36.45,34.5,48.7,95.5,30.28,15.42,0,63.43
346.5078125,34.4,32.25,48.7,95.5,30.28,15.42,0,63.43
346.515625,35.6,32.15,48.7,95.5,30.28,15.42,0,63.43
346.5234375,34.95,31.25,48.7,95.5,30.28,15.42,0,63.43
346.53125,35.2,31.2,48.7,95.5,30.28,15.42,0,63.43
346.5390625,35.4,30.4,48.7,95.5,30.28,15.42,0,63.43
346.546875,32.5,29.5,48.7,95.5,30.28,15.42,0,63.43
346.5546875,27.45,27.4,48.7,95.5,30.28,15.42,0,63.43
346.5625,22.6,25.1,48.7,95.5,30.28,15.42,0,63.43
346.5703125,23.65,25.45,48.7,95.5,30.28,15.42,0,63.43
346.578125,24.7,25.9,48.7,95.5,30.28,15.42,0,63.43
346.5859375,29.2,28.6,48.7,95.5,30.28,15.42,0,63.43
346.59375,29.6,28.05,48.7,95.5,30.28,15.42,0,63.43
346.6015625,33.9,28.7,48.7,95.5,30.28,15.42,0,63.43
346.609375,38.85,28.8,48.7,95.5,30.28,15.42,0,63.43
346.6171875,44.8,32.25,48.7,95.5,30.28,15.42,0,63.43
346.625,40.2,31.85,48.7,95.5,30.28,15.42,0,63.43
346.6328125,37.15,34.3,48.7,95.5,30.28,15.42,0,63.43
346.640625,34.75,35.2,48.7,95.5,30.28,15.42,0,63.43
346.6484375,32.9,35.25,48.7,95.5,30.28,15.42,0,63.43
346.65625,30.15,31.75,48.7,95.5,30.28,15.42,0,63.43
346.6640625,31,29.5,48.7,95.5,30.28,15.42,0,63.43
346.671875,33.15,28.65,48.7,95.5,30.28,15.42,0,63.43
346.6796875,35,30,48.7,95.5,30.28,15.42,0,63.43
346.6875,37.95,32.05,48.7,95.5,30.28,15.42,0,63.43
346.6953125,36.15,31,48.7,95.5,30.28,15.42,0,63.43
346.703125,34.5,30.85,48.7,95.5,30.28,15.42,0,63.43
346.7109375,33.5,30.45,48.7,95.5,30.28,15.42,0,63.43
346.71875,34.55,30.65,48.7,95.5,30.28,15.42,0,63.43
346.7265625,30.1,27.05,48.7,95.5,30.28,15.42,0,63.43
346.734375,30.8,26.75,48.7,95.5,30.28,15.42,0,63.43
346.7421875,31.5,25.7,48.7,95.5,30.28,15.42,0,63.43
346.75,33.35,26.9,48.7,95.5,30.28,15.42,0,63.43
346.7578125,29.2,24.3,48.7,95.5,30.28,15.42,0,63.43
346.765625,25.8,22.9,48.7,95.5,30.28,15.42,0,63.43
346.7734375,24.3,22.55,48.7,95.5,30.28,15.42,0,63.43
346.78125,26.5,24.95,48.7,95.5,30.28,15.42,0,63.43
346.7890625,28.25,25.4,48.7,95.5,30.28,15.42,0,63.43
346.796875,30.25,26.05,48.7,95.5,30.28,15.42,0,63.43
346.8046875,34.55,28.4,48.7,95.5,30.28,15.42,0,63.43
346.8125,37.6,30.25,48.7,95.5,30.28,15.42,0,63.43
346.8203125,43.1,33.15,48.7,95.5,30.28,15.42,0,63.43
346.828125,44.85,34.4,48.7,95.5,30.28,15.42,0,63.43
346.8359375,48.05,36.85,48.7,95.5,30.28,15.42,0,63.43
346.84375,46.95,35.35,48.7,95.5,30.28,15.42,0,63.43
346.8515625,47.85,35.7,48.7,95.5,30.28,15.42,0,63.43
346.859375,44.7,34.35,48.7,95.5,30.28,15.42,0,63.43
346.8671875,47.35,38.55,48.7,95.5,30.28,15.42,0,63.43
346.875,49.2,40.55,48.7,95.5,30.28,15.42,0,63.43
346.8828125,52.8,42.85,48.7,95.5,30.28,15.42,0,63.43
346.890625,54.55,42.9,48.7,95.5,30.28,15.42,0,63.43
346.8984375,62.1,46.7,48.7,95.5,30.28,15.42,0,63.43
346.90625,64.9,47.45,48.7,95.5,30.28,15.42,0,63.43
346.9140625,59.55,44.95,48.7,95.5,30.28,15.42,0,63.43
346.921875,51.7,40.35,48.7,95.5,30.28,15.42,0,63.43
346.9296875,46.9,38.2,48.7,95.5,30.28,15.42,0,63.43
346.9375,47.4,39.25,48.7,95.5,30.28,15.42,0,63.43
346.9453125,49.2,39.25,48.7,95.5,30.28,15.42,0,63.43
346.953125,53.55,40,48.7,95.5,30.28,15.42,0,63.43
346.9609375,56.8,40,48.7,95.5,30.28,15.42,0,63.43
346.96875,63.5,42.9,48.7,95.5,30.28,15.42,0,63.43
346.9765625,62.8,42.35,48.7,95.5,30.28,15.42,0,63.43
346.984375,60.6,42.7,48.7,95.5,30.28,15.42,0,63.43
346.9921875,56.35,40.45,48.7,95.5,30.28,15.42,0,63.43
347,56.15,40.3,48.7,95.5,30.28,15.42,0,63.43
347.0078125,56.1,38.6,48.7,95.5,30.28,15.42,0,63.43
347.015625,58.05,38.7,48.7,95.5,30.28,15.42,0,63.43
347.0234375,56.35,36.65,48.7,95.5,30.28,15.42,0,63.43
347.03125,52.2,34.45,48.7,95.5,30.28,15.42,0,63.43
347.0390625,47.05,32.3,48.7,95.5,30.28,15.42,0,63.43
347.046875,45,32.75,48.7,95.5,30.28,15.42,0,63.43
347.0546875,48.25,35.05,48.7,95.5,30.28,15.42,0,63.43
347.0625,49.95,35.9,48.7,95.5,30.28,15.42,0,63.43
347.0703125,52.3,37.65,48.7,95.5,30.28,15.42,0,63.43
347.078125,48.6,36.1,48.7,95.5,30.28,15.42,0,63.43
347.0859375,48.95,36.35,48.7,95.5,30.28,15.42,0,63.43
347.09375,51.05,35.85,48.7,95.5,30.28,15.42,0,63.43
347.1015625,57.75,38,48.7,95.5,30.28,15.42,0,63.43
347.109375,60.1,37.05,48.7,95.5,30.28,15.42,0,63.43
347.1171875,64.1,39.1,48.7,95.5,30.28,15.42,0,63.43
347.125,62.55,38.75,48.7,95.5,30.28,15.42,0,63.43
347.1328125,61.2,40.55,48.7,95.5,30.28,15.42,0,63.43
347.140625,55.75,39.2,48.7,95.5,30.28,15.42,0,63.43
347.1484375,52.15,38.25,48.7,95.5,30.28,15.42,0,63.43
347.15625,51.15,36.4,48.8,96.8,30.56,15.56,0,63.21
347.1640625,52.3,36.35,48.8,96.8,30.56,15.56,0,63.21
347.171875,54.2,35.8,48.8,96.8,30.56,15.56,0,63.21
347.1796875,57.4,35,48.8,96.8,30.56,15.56,0,63.21
347.1875,61.45,35.65,48.8,96.8,30.56,15.56,0,63.21
347.1953125,58.85,34.6,48.8,96.8,30.56,15.56,0,63.21
347.203125,55.3,33.05,48.8,96.8,30.56,15.56,0,63.21
347.2109375,47.6,28.25,48.8,96.8,30.56,15.56,0,63.21
347.21875,44.15,25.95,48.8,96.8,30.56,15.56,0,63.21
347.2265625,40.7,23.25,48.8,96.8,30.56,15.56,0,63.21
347.234375,42.5,23.4,48.8,96.8,30.56,15.56,0,63.21
347.2421875,41.5,21.55,48.8,96.8,30.56,15.56,0,63.21
347.25,42.2,22.55,48.8,96.8,30.56,15.56,0,63.21
347.2578125,42.6,22.9,48.8,96.8,30.56,15.56,0,63.21
347.265625,47.85,25.75,48.8,96.8,30.56,15.56,0,63.21
347.2734375,50.85,26.65,48.8,96.8,30.56,15.56,0,63.21
347.28125,53.7,29,48.8,96.8,30.56,15.56,0,63.21
347.2890625,57.2,31.5,48.8,96.8,30.56,15.56,0,63.21
347.296875,60.35,33.55,48.8,96.8,30.56,15.56,0,63.21
347.3046875,61,35.1,48.8,96.8,30.56,15.56,0,63.21
347.3125,57,34.5,48.8,96.8,30.56,15.56,0,63.21
347.3203125,55.75,33.3,48.8,96.8,30.56,15.56,0,63.21
347.328125,55.95,32,48.8,96.8,30.56,15.56,0,63.21
347.3359375,61,35,48.8,96.8,30.56,15.56,0,63.21
347.34375,58.8,34,48.8,96.8,30.56,15.56,0,63.21
347.3515625,53.85,33.6,48.8,96.8,30.56,15.56,0,63.21
347.359375,44.85,29.5,48.8,96.8,30.56,15.56,0,63.21
347.3671875,41.7,27.5,48.8,96.8,30.56,15.56,0,63.21
347.375,39.45,24.95,48.8,96.8,30.56,15.56,0,63.21
347.3828125,42.9,25.5,48.8,96.8,30.56,15.56,0,63.21
347.390625,42.9,22.8,48.8,96.8,30.56,15.56,0,63.21
347.3984375,44.8,23.2,48.8,96.8,30.56,15.56,0,63.21
347.40625,50.9,25.2,48.8,96.8,30.56,15.56,0,63.21
347.4140625,55.6,27.9,48.8,96.8,30.56,15.56,0,63.21
347.421875,52.15,28.8,48.8,96.8,30.56,15.56,0,63.21
347.4296875,46.4,28,48.8,96.8,30.56,15.56,0,63.21
347.4375,43.55,27.1,48.8,96.8,30.56,15.56,0,63.21
347.4453125,40.8,25.15,48.8,96.8,30.56,15.56,0,63.21
347.453125,42.8,24.4,48.8,96.8,30.56,15.56,0,63.21
347.4609375,41.25,21.05,48.8,96.8,30.56,15.56,0,63.21
347.46875,42.25,20.55,48.8,96.8,30.56,15.56,0,63.21
347.4765625,45.75,20.65,48.8,96.8,30.56,15.56,0,63.21
347.484375,53.95,25.15,48.8,96.8,30.56,15.56,0,63.21
347.4921875,55.25,25.5,48.8,96.8,30.56,15.56,0,63.21
347.5,55.5,27.1,48.8,96.8,30.56,15.56,0,63.21
347.5078125,49.95,25.1,48.8,96.8,30.56,15.56,0,63.21
347.515625,45.1,23.9,48.8,96.8,30.56,15.56,0,63.21
347.5234375,41.85,23.7,48.8,96.8,30.56,15.56,0,63.21
347.53125,42.15,26.7,48.8,96.8,30.56,15.56,0,63.21
347.5390625,45.2,27.7,48.8,96.8,30.56,15.56,0,63.21
347.546875,49.15,28.55,48.8,96.8,30.56,15.56,0,63.21
347.5546875,51.55,28.25,48.8,96.8,30.56,15.56,0,63.21
347.5625,53.15,27.2,48.8,96.8,30.56,15.56,0,63.21
347.5703125,56.65,28.5,48.8,96.8,30.56,15.56,0,63.21
347.578125,52.4,27.5,48.8,96.8,30.56,15.56,0,63.21
347.5859375,50.05,27.1,48.8,96.8,30.56,15.56,0,63.21
347.59375,47.85,25.05,48.8,96.8,30.56,15.56,0,63.21
347.6015625,45.95,22.9,48.8,96.8,30.56,15.56,0,63.21
347.609375,39.4,18,48.8,96.8,30.56,15.56,0,63.21
347.6171875,37.75,16.75,48.8,96.8,30.56,15.56,0,63.21
347.625,33.65,13.5,48.8,96.8,30.56,15.56,0,63.21
347.6328125,35.15,14.5,48.8,96.8,30.56,15.56,0,63.21
347.640625,37.15,15.1,48.8,96.8,30.56,15.56,0,63.21
347.6484375,35.85,14,48.8,96.8,30.56,15.56,0,63.21
347.65625,32.65,12,48.8,96.8,30.56,15.56,0,63.21
347.6640625,32.8,11.95,48.8,96.8,30.56,15.56,0,63.21
347.671875,31.55,10.45,48.8,96.8,30.56,15.56,0,63.21
347.6796875,30.15,9.4,48.8,96.8,30.56,15.56,0,63.21
347.6875,33,10.1,48.8,96.8,30.56,15.56,0,63.21
347.6953125,31.7,8.75,48.8,96.8,30.56,15.56,0,63.21
347.703125,29.7,8.9,48.8,96.8,30.56,15.56,0,63.21
347.7109375,25.2,7.1,48.8,96.8,30.56,15.56,0,63.21
347.71875,24.1,8.4,48.8,96.8,30.56,15.56,0,63.21
347.7265625,20.45,8.15,48.8,96.8,30.56,15.56,0,63.21
347.734375,19.8,8.8,48.8,96.8,30.56,15.56,0,63.21
347.7421875,16.7,7,48.8,96.8,30.56,15.56,0,63.21
347.75,16.6,8.75,48.8,96.8,30.56,15.56,0,63.21
347.7578125,14.75,8.45,48.8,96.8,30.56,15.56,0,63.21
347.765625,13.75,8.4,48.8,96.8,30.56,15.56,0,63.21
347.7734375,9.45,5.45,48.8,96.8,30.56,15.56,0,63.21
347.78125,4.05,3.2,48.8,96.8,30.56,15.56,0,63.21
347.7890625,0.1,1.45,48.8,96.8,30.56,15.56,0,63.21
347.796875,-0.35,2.05,48.8,96.8,30.56,15.56,0,63.21
347.8046875,0.2,2.6,48.8,96.8,30.56,15.56,0,63.21
347.8125,-1.7,1.45,48.8,96.8,30.56,15.56,0,63.21
347.8203125,1.75,1.8,48.8,96.8,30.56,15.56,0,63.21
347.828125,3.3,1.15,48.8,96.8,30.56,15.56,0,63.21
347.8359375,5.25,2.8,48.8,96.8,30.56,15.56,0,63.21
347.84375,5.05,3.55,48.8,96.8,30.56,15.56,0,63.21
347.8515625,9.3,7.2,48.8,96.8,30.56,15.56,0,63.21
347.859375,8.55,7.65,48.8,96.8,30.56,15.56,0,63.21
347.8671875,10.2,9.5,48.8,96.8,30.56,15.56,0,63.21
347.875,6.4,5.8,48.8,96.8,30.56,15.56,0,63.21
347.8828125,3.7,3.7,48.8,96.8,30.56,15.56,0,63.21
347.890625,1.15,2.05,48.8,96.8,30.56,15.56,0,63.21
347.8984375,3.85,3.65,48.8,96.8,30.56,15.56,0,63.21
347.90625,7.9,4.15,48.8,96.8,30.56,15.56,0,63.21
347.9140625,13.9,6.6,48.8,96.8,30.56,15.56,0,63.21
347.921875,17.25,8.25,48.8,96.8,30.56,15.56,0,63.21
347.9296875,16.65,8.1,48.8,96.8,30.56,15.56,0,63.21
347.9375,15.15,7.55,48.8,96.8,30.56,15.56,0,63.21
347.9453125,12.6,6.85,48.8,96.8,30.56,15.56,0,63.21
347.953125,14.35,8.5,48.8,96.8,30.56,15.56,0,63.21
347.9609375,14.35,8.25,48.8,96.8,30.56,15.56,0,63.21
347.96875,17.4,10.1,48.8,96.8,30.56,15.56,0,63.21
347.9765625,18.9,9.6,48.8,96.8,30.56,15.56,0,63.21
347.984375,22.05,10.2,48.8,96.8,30.56,15.56,0,63.21
347.9921875,20.75,8.4,48.8,96.8,30.56,15.56,0,63.21
348,22,9.35,48.8,96.8,30.56,15.56,0,63.21
348.0078125,20.7,8.55,48.8,96.8,30.56,15.56,0,63.21
348.015625,21.2,9.9,48.8,96.8,30.56,15.56,0,63.21
348.0234375,21.85,10.05,48.8,96.8,30.56,15.56,0,63.21
348.03125,24.25,12.15,48.8,96.8,30.56,15.56,0,63.21
348.0390625,28.3,15.7,48.8,96.8,30.56,15.56,0,63.21
348.046875,32,18.7,48.8,96.8,30.56,15.56,0,63.21
348.0546875,37.15,21.2,48.8,96.8,30.56,15.56,0,63.21
348.0625,43.75,23.85,48.8,96.8,30.56,15.56,0,63.21
348.0703125,50.95,26.25,48.8,96.8,30.56,15.56,0,63.21
348.078125,50.55,24.9,48.8,96.8,30.56,15.56,0,63.21
348.0859375,51.15,26.2,48.8,96.8,30.56,15.56,0,63.21
348.09375,48.9,25.6,48.8,96.8,30.56,15.56,0,63.21
348.1015625,49.6,26.25,48.8,96.8,30.56,15.56,0,63.21
348.109375,46.4,23.55,48.8,96.8,30.56,15.56,0,63.21
348.1171875,46.25,23.1,48.8,96.8,30.56,15.56,0,63.21
348.125,42.9,19.95,48.8,96.8,30.56,15.56,0,63.21
348.1328125,44.1,20.25,48.8,96.8,30.56,15.56,0,63.21
348.140625,46,20.25,48.8,96.8,30.56,15.56,0,63.21
348.1484375,47.05,21.1,48.8,96.8,30.56,15.56,0,63.21
348.15625,41.2,18.2,50.4,98.1,30.2,15.69,0,63.24
348.1640625,37.25,16.1,50.4,98.1,30.2,15.69,0,63.24
348.171875,38.15,15.45,50.4,98.1,30.2,15.69,0,63.24
348.1796875,38.4,14.75,50.4,98.1,30.2,15.69,0,63.24
348.1875,37.6,14.15,50.4,98.1,30.2,15.69,0,63.24
348.1953125,33.95,12.85,50.4,98.1,30.2,15.69,0,63.24
348.203125,34.35,14.75,50.4,98.1,30.2,15.69,0,63.24
348.2109375,35,15.2,50.4,98.1,30.2,15.69,0,63.24
348.21875,38.3,17.15,50.4,98.1,30.2,15.69,0,63.24
348.2265625,35.7,15.8,50.4,98.1,30.2,15.69,0,63.24
348.234375,35.05,16.75,50.4,98.1,30.2,15.69,0,63.24
348.2421875,32.45,16.95,50.4,98.1,30.2,15.69,0,63.24
348.25,32.55,18.85,50.4,98.1,30.2,15.69,0,63.24
348.2578125,29,15.7,50.4,98.1,30.2,15.69,0,63.24
348.265625,29.1,14.1,50.4,98.1,30.2,15.69,0,63.24
348.2734375,36.9,14.8,50.4,98.1,30.2,15.69,0,63.24
348.28125,50.65,19.6,50.4,98.1,30.2,15.69,0,63.24
348.2890625,56.95,22.55,50.4,98.1,30.2,15.69,0,63.24
348.296875,50.4,21.35,50.4,98.1,30.2,15.69,0,63.24
348.3046875,40.35,17.5,50.4,98.1,30.2,15.69,0,63.24
348.3125,32.55,13,50.4,98.1,30.2,15.69,0,63.24
348.3203125,31.65,10.8,50.4,98.1,30.2,15.69,0,63.24
348.328125,32.25,9.95,50.4,98.1,30.2,15.69,0,63.24
348.3359375,39.75,14.9,50.4,98.1,30.2,15.69,0,63.24
348.34375,44.05,17.8,50.4,98.1,30.2,15.69,0,63.24
348.3515625,47.3,20.35,50.4,98.1,30.2,15.69,0,63.24
348.359375,44,18.1,50.4,98.1,30.2,15.69,0,63.24
348.3671875,43.15,17.6,50.4,98.1,30.2,15.69,0,63.24
348.375,40,16.5,50.4,98.1,30.2,15.69,0,63.24
348.3828125,40.55,19.25,50.4,98.1,30.2,15.69,0,63.24
348.390625,41.5,20.25,50.4,98.1,30.2,15.69,0,63.24
348.3984375,45.2,22.95,50.4,98.1,30.2,15.69,0,63.24
348.40625,46.15,23.7,50.4,98.1,30.2,15.69,0,63.24
348.4140625,45.55,23.9,50.4,98.1,30.2,15.69,0,63.24
348.421875,41.9,22.25,50.4,98.1,30.2,15.69,0,63.24
348.4296875,35.65,19.5,50.4,98.1,30.2,15.69,0,63.24
348.4375,35.3,19.35,50.4,98.1,30.2,15.69,0,63.24
348.4453125,36.3,20.1,50.4,98.1,30.2,15.69,0,63.24
348.453125,38.8,23.15,50.4,98.1,30.2,15.69,0,63.24
348.4609375,40.1,25.05,50.4,98.1,30.2,15.69,0,63.24
348.46875,44.9,28.75,50.4,98.1,30.2,15.69,0,63.24
348.4765625,43.3,27.1,50.4,98.1,30.2,15.69,0,63.24
348.484375,42.95,26.3,50.4,98.1,30.2,15.69,0,63.24
348.4921875,43.85,25.75,50.4,98.1,30.2,15.69,0,63.24
348.5,47.6,27.4,50.4,98.1,30.2,15.69,0,63.24
348.5078125,44.1,23.85,50.4,98.1,30.2,15.69,0,63.24
348.515625,39.3,21.6,50.4,98.1,30.2,15.69,0,63.24
348.5234375,34.9,19.7,50.4,98.1,30.2,15.69,0,63.24
348.53125,30.3,18.6,50.4,98.1,30.2,15.69,0,63.24
348.5390625,25.7,17,50.4,98.1,30.2,15.69,0,63.24
348.546875,24.6,17.6,50.4,98.1,30.2,15.69,0,63.24
348.5546875,26.35,18.75,50.4,98.1,30.2,15.69,0,63.24
348.5625,26.3,17.9,50.4,98.1,30.2,15.69,0,63.24
348.5703125,29.65,18.25,50.4,98.1,30.2,15.69,0,63.24
348.578125,30.45,17.2,50.4,98.1,30.2,15.69,0,63.24
348.5859375,33.8,18.55,50.4,98.1,30.2,15.69,0,63.24
348.59375,33.65,17.75,50.4,98.1,30.2,15.69,0,63.24
348.6015625,34.65,19.2,50.4,98.1,30.2,15.69,0,63.24
348.609375,30.15,18.1,50.4,98.1,30.2,15.69,0,63.24
348.6171875,26.2,16.85,50.4,98.1,30.2,15.69,0,63.24
348.625,17,10.85,50.4,98.1,30.2,15.69,0,63.24
348.6328125,11.8,9.45,50.4,98.1,30.2,15.69,0,63.24
348.640625,6.85,7.85,50.4,98.1,30.2,15.69,0,63.24
348.6484375,6.1,6.7,50.4,98.1,30.2,15.69,0,63.24
348.65625,8.15,5.85,50.4,98.1,30.2,15.69,0,63.24
348.6640625,12.1,7.4,50.4,98.1,30.2,15.69,0,63.24
348.671875,15.7,9.1,50.4,98.1,30.2,15.69,0,63.24
348.6796875,19.15,12.1,50.4,98.1,30.2,15.69,0,63.24
348.6875,21.95,14.9,50.4,98.1,30.2,15.69,0,63.24
348.6953125,19.85,13.3,50.4,98.1,30.2,15.69,0,63.24
348.703125,18.1,12.25,50.4,98.1,30.2,15.69,0,63.24
348.7109375,11.95,8.45,50.4,98.1,30.2,15.69,0,63.24
348.71875,9.7,5.4,50.4,98.1,30.2,15.69,0,63.24
348.7265625,11.05,3.5,50.4,98.1,30.2,15.69,0,63.24
348.734375,21.45,9.55,50.4,98.1,30.2,15.69,0,63.24
348.7421875,26.95,13.65,50.4,98.1,30.2,15.69,0,63.24
348.75,31.2,18.55,50.4,98.1,30.2,15.69,0,63.24
348.7578125,31.85,20.6,50.4,98.1,30.2,15.69,0,63.24
348.765625,31.75,21.85,50.4,98.1,30.2,15.69,0,63.24
348.7734375,24.3,17.6,50.4,98.1,30.2,15.69,0,63.24
348.78125,16.15,13.4,50.4,98.1,30.2,15.69,0,63.24
348.7890625,12.6,10.8,50.4,98.1,30.2,15.69,0,63.24
348.796875,14.9,11.65,50.4,98.1,30.2,15.69,0,63.24
348.8046875,19.65,13.55,50.4,98.1,30.2,15.69,0,63.24
348.8125,19.7,12.95,50.4,98.1,30.2,15.69,0,63.24
348.8203125,16.35,10.8,50.4,98.1,30.2,15.69,0,63.24
348.828125,7.85,6.35,50.4,98.1,30.2,15.69,0,63.24
348.8359375,1.8,4.05,50.4,98.1,30.2,15.69,0,63.24
348.84375,-4.65,1.05,50.4,98.1,30.2,15.69,0,63.24
348.8515625,-5.55,1.85,50.4,98.1,30.2,15.69,0,63.24
348.859375,-10.5,-0.3,50.4,98.1,30.2,15.69,0,63.24
348.8671875,-14.75,-2.1,50.4,98.1,30.2,15.69,0,63.24
348.875,-19.35,-5.5,50.4,98.1,30.2,15.69,0,63.24
348.8828125,-19.95,-5.25,50.4,98.1,30.2,15.69,0,63.24
348.890625,-22.45,-6.65,50.4,98.1,30.2,15.69,0,63.24
348.8984375,-22.3,-6.5,50.4,98.1,30.2,15.69,0,63.24
348.90625,-23.15,-7.6,50.4,98.1,30.2,15.69,0,63.24
348.9140625,-26.6,-9.45,50.4,98.1,30.2,15.69,0,63.24
348.921875,-29.6,-10.95,50.4,98.1,30.2,15.69,0,63.24
348.9296875,-30.25,-11.15,50.4,98.1,30.2,15.69,0,63.24
348.9375,-26.4,-9.4,50.4,98.1,30.2,15.69,0,63.24
348.9453125,-21.15,-6.6,50.4,98.1,30.2,15.69,0,63.24
348.953125,-15.3,-1.65,50.4,98.1,30.2,15.69,0,63.24
348.9609375,-17.4,-1.45,50.4,98.1,30.2,15.69,0,63.24
348.96875,-18.95,-0.35,50.4,98.1,30.2,15.69,0,63.24
348.9765625,-23.6,-2.75,50.4,98.1,30.2,15.69,0,63.24
348.984375,-24,-4.15,50.4,98.1,30.2,15.69,0,63.24
348.9921875,-23.25,-6.1,50.4,98.1,30.2,15.69,0,63.24
349,-18.25,-3.2,50.4,98.1,30.2,15.69,0,63.24
349.0078125,-17.95,-2.55,50.4,98.1,30.2,15.69,0,63.24
349.015625,-17.35,0.2,50.4,98.1,30.2,15.69,0,63.24
349.0234375,-21.65,-0.9,50.4,98.1,30.2,15.69,0,63.24
349.03125,-28.8,-4.9,50.4,98.1,30.2,15.69,0,63.24
349.0390625,-35.6,-10.3,50.4,98.1,30.2,15.69,0,63.24
349.046875,-38.65,-12.6,50.4,98.1,30.2,15.69,0,63.24
349.0546875,-38.2,-12.35,50.4,98.1,30.2,15.69,0,63.24
349.0625,-39.05,-11.75,50.4,98.1,30.2,15.69,0,63.24
349.0703125,-35.15,-9.1,50.4,98.1,30.2,15.69,0,63.24
349.078125,-31.25,-7.05,50.4,98.1,30.2,15.69,0,63.24
349.0859375,-28.1,-5.55,50.4,98.1,30.2,15.69,0,63.24
349.09375,-32.65,-9.2,50.4,98.1,30.2,15.69,0,63.24
349.1015625,-34.3,-9.05,50.4,98.1,30.2,15.69,0,63.24
349.109375,-34.8,-7.55,50.4,98.1,30.2,15.69,0,63.24
349.1171875,-27.75,-2.25,50.4,98.1,30.2,15.69,0,63.24
349.125,-24.7,-1.4,50.4,98.1,30.2,15.69,0,63.24
349.1328125,-20,0.7,50.4,98.1,30.2,15.69,0,63.24
349.140625,-14.8,1.95,50.4,98.1,30.2,15.69,0,63.24
349.1484375,-10.3,3.95,50.4,98.1,30.2,15.69,0,63.24
349.15625,-12.15,2.7,51.6,99.4,29.97,15.69,0,63.25
349.1640625,-13.1,3.15,51.6,99.4,29.97,15.69,0,63.25
349.171875,-11.45,3.9,51.6,99.4,29.97,15.69,0,63.25
349.1796875,-8.7,4.6,51.6,99.4,29.97,15.69,0,63.25
349.1875,-4.3,5.45,51.6,99.4,29.97,15.69,0,63.25
349.1953125,-4,5.15,51.6,99.4,29.97,15.69,0,63.25
349.203125,-2.25,7.4,51.6,99.4,29.97,15.69,0,63.25
349.2109375,-2.05,8.25,51.6,99.4,29.97,15.69,0,63.25
349.21875,0.5,10.4,51.6,99.4,29.97,15.69,0,63.25
349.2265625,-2.3,9.8,51.6,99.4,29.97,15.69,0,63.25
349.234375,-4.2,10.2,51.6,99.4,29.97,15.69,0,63.25
349.2421875,-6.15,8.75,51.6,99.4,29.97,15.69,0,63.25
349.25,-3.45,10.85,51.6,99.4,29.97,15.69,0,63.25
349.2578125,-6.55,9.2,51.6,99.4,29.97,15.69,0,63.25
349.265625,-7.2,8.8,51.6,99.4,29.97,15.69,0,63.25
349.2734375,-3.35,11,51.6,99.4,29.97,15.69,0,63.25
349.28125,2.35,14.3,51.6,99.4,29.97,15.69,0,63.25
349.2890625,6.95,15.05,51.6,99.4,29.97,15.69,0,63.25
349.296875,7.35,13.85,51.6,99.4,29.97,15.69,0,63.25
349.3046875,4.2,10.95,51.6,99.4,29.97,15.69,0,63.25
349.3125,2.3,8.9,51.6,99.4,29.97,15.69,0,63.25
349.3203125,7.6,12.3,51.6,99.4,29.97,15.69,0,63.25
349.328125,9.3,14.7,51.6,99.4,29.97,15.69,0,63.25
349.3359375,14.1,18.95,51.6,99.4,29.97,15.69,0,63.25
349.34375,15.45,19.8,51.6,99.4,29.97,15.69,0,63.25
349.3515625,15.7,20,51.6,99.4,29.97,15.69,0,63.25
349.359375,12.25,18.55,51.6,99.4,29.97,15.69,0,63.25
349.3671875,17,22.45,51.6,99.4,29.97,15.69,0,63.25
349.375,21,25.35,51.6,99.4,29.97,15.69,0,63.25
349.3828125,25,30.6,51.6,99.4,29.97,15.69,0,63.25
349.390625,26.85,32.35,51.6,99.4,29.97,15.69,0,63.25
349.3984375,32.95,33.55,51.6,99.4,29.97,15.69,0,63.25
349.40625,37.7,33.65,51.6,99.4,29.97,15.69,0,63.25
349.4140625,39.6,34.25,51.6,99.4,29.97,15.69,0,63.25
349.421875,39.8,33.1,51.6,99.4,29.97,15.69,0,63.25
349.4296875,37.4,31.25,51.6,99.4,29.97,15.69,0,63.25
349.4375,34.55,30.3,51.6,99.4,29.97,15.69,0,63.25
349.4453125,30.7,29.95,51.6,99.4,29.97,15.69,0,63.25
349.453125,30.45,32.85,51.6,99.4,29.97,15.69,0,63.25
349.4609375,27.9,32,51.6,99.4,29.97,15.69,0,63.25
349.46875,27.15,30.25,51.6,99.4,29.97,15.69,0,63.25
349.4765625,25.5,27.9,51.6,99.4,29.97,15.69,0,63.25
349.484375,29.25,30,51.6,99.4,29.97,15.69,0,63.25
349.4921875,28.85,28.5,51.6,99.4,29.97,15.69,0,63.25
349.5,29.5,29,51.6,99.4,29.97,15.69,0,63.25
349.5078125,26.7,27.4,51.6,99.4,29.97,15.69,0,63.25
349.515625,25.65,27.65,51.6,99.4,29.97,15.69,0,63.25
349.5234375,28.7,28.25,51.6,99.4,29.97,15.69,0,63.25
349.53125,36.8,30.9,51.6,99.4,29.97,15.69,0,63.25
349.5390625,44,31.8,51.6,99.4,29.97,15.69,0,63.25
349.546875,51.5,33.45,51.6,99.4,29.97,15.69,0,63.25
349.5546875,57.5,35.65,51.6,99.4,29.97,15.69,0,63.25
349.5625,53.55,34.45,51.6,99.4,29.97,15.69,0,63.25
349.5703125,48.05,32.4,51.6,99.4,29.97,15.69,0,63.25
349.578125,40.55,28.85,51.6,99.4,29.97,15.69,0,63.25
349.5859375,37.65,27.9,51.6,99.4,29.97,15.69,0,63.25
349.59375,36,27.55,51.6,99.4,29.97,15.69,0,63.25
349.6015625,37.2,29.75,51.6,99.4,29.97,15.69,0,63.25
349.609375,34.1,28.25,51.6,99.4,29.97,15.69,0,63.25
349.6171875,34,29.15,51.6,99.4,29.97,15.69,0,63.25
349.625,30.3,28.5,51.6,99.4,29.97,15.69,0,63.25
349.6328125,29.9,29.95,51.6,99.4,29.97,15.69,0,63.25
349.640625,26.35,28.15,51.6,99.4,29.97,15.69,0,63.25
349.6484375,19.6,26.25,51.6,99.4,29.97,15.69,0,63.25
349.65625,12.7,24.2,51.6,99.4,29.97,15.69,0,63.25
349.6640625,9.45,23.8,51.6,99.4,29.97,15.69,0,63.25
349.671875,7.7,22.05,51.6,99.4,29.97,15.69,0,63.25
349.6796875,8.3,20.35,51.6,99.4,29.97,15.69,0,63.25
349.6875,9.05,20,51.6,99.4,29.97,15.69,0,63.25
349.6953125,4.9,18.4,51.6,99.4,29.97,15.69,0,63.25
349.703125,4.4,18.9,51.6,99.4,29.97,15.69,0,63.25
349.7109375,1.35,17.2,51.6,99.4,29.97,15.69,0,63.25
349.71875,-0.05,16.7,51.6,99.4,29.97,15.69,0,63.25
349.7265625,-3.8,13.9,51.6,99.4,29.97,15.69,0,63.25
349.734375,-3.65,14.4,51.6,99.4,29.97,15.69,0,63.25
349.7421875,-3.5,14.2,51.6,99.4,29.97,15.69,0,63.25
349.75,1.45,17.65,51.6,99.4,29.97,15.69,0,63.25
349.7578125,1.2,17.5,51.6,99.4,29.97,15.69,0,63.25
349.765625,1.85,18.15,51.6,99.4,29.97,15.69,0,63.25
349.7734375,1.3,16.6,51.6,99.4,29.97,15.69,0,63.25
349.78125,1.65,17.05,51.6,99.4,29.97,15.69,0,63.25
349.7890625,3.05,18,51.6,99.4,29.97,15.69,0,63.25
349.796875,5.65,19.7,51.6,99.4,29.97,15.69,0,63.25
349.8046875,8.5,19.8,51.6,99.4,29.97,15.69,0,63.25
349.8125,8.55,19.1,51.6,99.4,29.97,15.69,0,63.25
349.8203125,7.8,19.4,51.6,99.4,29.97,15.69,0,63.25
349.828125,4.35,18.25,51.6,99.4,29.97,15.69,0,63.25
349.8359375,7.05,20.25,51.6,99.4,29.97,15.69,0,63.25
349.84375,6.5,20.5,51.6,99.4,29.97,15.69,0,63.25
349.8515625,7.4,21.25,51.6,99.4,29.97,15.69,0,63.25
349.859375,7.2,19.1,51.6,99.4,29.97,15.69,0,63.25
349.8671875,11.2,20.05,51.6,99.4,29.97,15.69,0,63.25
349.875,14,20.25,51.6,99.4,29.97,15.69,0,63.25
349.8828125,20.45,22.55,51.6,99.4,29.97,15.69,0,63.25
349.890625,21.7,21.25,51.6,99.4,29.97,15.69,0,63.25
349.8984375,19,20.15,51.6,99.4,29.97,15.69,0,63.25
349.90625,14.05,18.45,51.6,99.4,29.97,15.69,0,63.25
349.9140625,11.15,17.8,51.6,99.4,29.97,15.69,0,63.25
349.921875,9.8,17.15,51.6,99.4,29.97,15.69,0,63.25
349.9296875,9.2,16.55,51.6,99.4,29.97,15.69,0,63.25
349.9375,11.55,17.65,51.6,99.4,29.97,15.69,0,63.25
349.9453125,13.15,17.9,51.6,99.4,29.97,15.69,0,63.25
349.953125,18.8,20.65,51.6,99.4,29.97,15.69,0,63.25
349.9609375,21.65,21.3,51.6,99.4,29.97,15.69,0,63.25
349.96875,25.55,23.5,51.6,99.4,29.97,15.69,0,63.25
349.9765625,24.85,22.35,51.6,99.4,29.97,15.69,0,63.25
349.984375,26.65,23.5,51.6,99.4,29.97,15.69,0,63.25
349.9921875,25.5,22.15,51.6,99.4,29.97,15.69,0,63.25
350,30.45,24.3,51.6,99.4,29.97,15.69,0,63.25
350.0078125,34.6,25.15,51.6,99.4,29.97,15.69,0,63.25
350.015625,38.65,28.2,51.6,99.4,29.97,15.69,0,63.25
350.0234375,39.45,28.95,51.6,99.4,29.97,15.69,0,63.25
350.03125,40.5,30.65,51.6,99.4,29.97,15.69,0,63.25
350.0390625,40,30.75,51.6,99.4,29.97,15.69,0,63.25
350.046875,37.35,29.8,51.6,99.4,29.97,15.69,0,63.25
350.0546875,34.8,27.75,51.6,99.4,29.97,15.69,0,63.25
350.0625,32.6,25.65,51.6,99.4,29.97,15.69,0,63.25
350.0703125,34.55,25.9,51.6,99.4,29.97,15.69,0,63.25
350.078125,33.5,25.8,51.6,99.4,29.97,15.69,0,63.25
350.0859375,33.2,27.8,51.6,99.4,29.97,15.69,0,63.25
350.09375,31.9,27.35,51.6,99.4,29.97,15.69,0,63.25
350.1015625,32.1,26.9,51.6,99.4,29.97,15.69,0,63.25
350.109375,24.75,22.6,51.6,99.4,29.97,15.69,0,63.25
350.1171875,22.45,21.95,51.6,99.4,29.97,15.69,0,63.25
350.125,22.8,21,51.6,99.4,29.97,15.69,0,63.25
350.1328125,25.4,22.95,51.6,99.4,29.97,15.69,0,63.25
350.140625,27,23.7,51.6,99.4,29.97,15.69,0,63.25
350.1484375,30.9,26.1,51.6,99.4,29.97,15.69,0,63.25
350.15625,34.55,26.55,52.1,100,29.49,15.73,0,63.18
350.1640625,39.85,27.7,52.1,100,29.49,15.73,0,63.18
350.171875,43.85,28.6,52.1,100,29.49,15.73,0,63.18
350.1796875,43.5,28.25,52.1,100,29.49,15.73,0,63.18
350.1875,46.15,29.05,52.1,100,29.49,15.73,0,63.18
350.1953125,46.3,27.85,52.1,100,29.49,15.73,0,63.18
350.203125,42.55,25.65,52.1,100,29.49,15.73,0,63.18
350.2109375,36.1,22.55,52.1,100,29.49,15.73,0,63.18
350.21875,36.25,23.1,52.1,100,29.49,15.73,0,63.18
350.2265625,36.55,22.35,52.1,100,29.49,15.73,0,63.18
350.234375,42.75,25.2,52.1,100,29.49,15.73,0,63.18
350.2421875,46.1,25.05,52.1,100,29.49,15.73,0,63.18
350.25,50.7,25.95,52.1,100,29.49,15.73,0,63.18
350.2578125,51.7,24.7,52.1,100,29.49,15.73,0,63.18
350.265625,53.35,25.8,52.1,100,29.49,15.73,0,63.18
350.2734375,55.65,27.4,52.1,100,29.49,15.73,0,63.18
350.28125,60,31,52.1,100,29.49,15.73,0,63.18
350.2890625,58.75,31.15,52.1,100,29.49,15.73,0,63.18
350.296875,55,30.6,52.1,100,29.49,15.73,0,63.18
350.3046875,49.9,28.4,52.1,100,29.49,15.73,0,63.18
